Fp1,Fp2,F3,F4,C3,C4,P3,P4,O1,O2,F7,F8,T7,T8,P7,P8,Fz,Cz,Pz,FC1,FC2,CP1,CP2,FC5,FC6,CP5,CP6,TP9,TP10,Eog,Ekg1,Ekg2,Trigger
-55.0,-922.0,3128.0,-1739.0,237.0,-4663.0,2418.0,-1712.0,3552.0,228.0,6318.0,-3099.0,-2961.0,-13183.0,6864.0,-3722.0,-4609.0,-3454.0,-65.0,3517.0,1847.0,-4602.0,1945.0,-2530.0,8332.0,-4147.0,-539.0,-6635.0,-980.0,-7766.0,765.0,7741.0,0
-793.0,-479.0,2049.0,-1006.0,232.0,-2831.0,1692.0,-1001.0,2196.0,157.0,3974.0,-2030.0,-1824.0,-8311.0,4423.0,-2406.0,-2862.0,-2101.0,68.0,2243.0,1342.0,-2753.0,1322.0,-1570.0,5475.0,-2542.0,-354.0,-4131.0,-579.0,-5071.0,645.0,3551.0,0
742.0,2031.0,-2132.0,2363.0,509.0,4999.0,-1983.0,2048.0,-3150.0,353.0,-5411.0,3013.0,3049.0,12518.0,-5776.0,3505.0,4150.0,3460.0,713.0,-2623.0,-1140.0,5020.0,-1338.0,2916.0,-6864.0,4748.0,1053.0,7624.0,1507.0,7962.0,397.0,-7308.0,0
1664.0,1904.0,-1608.0,2065.0,511.0,4188.0,-1753.0,1726.0,-2493.0,439.0,-4315.0,2596.0,2528.0,10332.0,-4695.0,2952.0,3328.0,2847.0,647.0,-1995.0,-961.0,4174.0,-1062.0,2554.0,-5622.0,4130.0,1049.0,6641.0,1352.0,6964.0,484.0,-4359.0,0
236.0,-616.0,2613.0,-1337.0,235.0,-3726.0,1908.0,-1362.0,2908.0,252.0,5174.0,-2498.0,-2397.0,-10657.0,5569.0,-3036.0,-3765.0,-2786.0,-27.0,2914.0,1504.0,-3676.0,1604.0,-1977.0,6828.0,-3200.0,-373.0,-5207.0,-754.0,-6159.0,716.0,6626.0,0
-724.0,-249.0,2758.0,-1596.0,181.0,-4035.0,2031.0,-1460.0,3346.0,262.0,5732.0,-2928.0,-2657.0,-12048.0,5800.0,-3454.0,-4553.0,-2115.0,864.0,3085.0,1193.0,-3892.0,958.0,-2652.0,7612.0,-5161.0,-1192.0,-6539.0,-1618.0,-8045.0,-1439.0,588.0,0
165.0,1140.0,-1391.0,1728.0,428.0,3507.0,-1162.0,1414.0,-2396.0,195.0,-3798.0,2145.0,2137.0,8937.0,-3756.0,2468.0,3350.0,1733.0,-135.0,-1880.0,-351.0,3539.0,-379.0,2295.0,-4848.0,4357.0,1229.0,5793.0,1536.0,6210.0,2034.0,-1368.0,0
1428.0,1599.0,-2195.0,2487.0,529.0,5126.0,-1987.0,2021.0,-3535.0,290.0,-5731.0,3342.0,3141.0,13397.0,-5756.0,3781.0,4922.0,2513.0,-337.0,-2834.0,-778.0,5079.0,-668.0,3432.0,-7606.0,6503.0,1860.0,8641.0,2264.0,9622.0,2808.0,-7.0,0
673.0,238.0,1855.0,-762.0,270.0,-2241.0,1103.0,-761.0,2048.0,348.0,3542.0,-1595.0,-1542.0,-7021.0,3548.0,-1987.0,-2792.0,-1236.0,610.0,2000.0,705.0,-2196.0,609.0,-1386.0,4473.0,-2737.0,-500.0,-3341.0,-833.0,-4231.0,-589.0,1978.0,0
-678.0,-351.0,3164.0,-1929.0,135.0,-4816.0,2320.0,-1711.0,3903.0,268.0,6681.0,-3373.0,-3136.0,-14065.0,6743.0,-4012.0,-5343.0,-2459.0,941.0,3560.0,1322.0,-4644.0,1062.0,-3114.0,8752.0,-6043.0,-1417.0,-7691.0,-1897.0,-9333.0,-1762.0,1058.0,0
-78.0,925.0,-710.0,1192.0,383.0,2232.0,-606.0,966.0,-1419.0,197.0,-2157.0,1343.0,1348.0,5463.0,-2135.0,1498.0,2061.0,1143.0,62.0,-1040.0,-44.0,2316.0,-155.0,1489.0,-2751.0,2807.0,815.0,3747.0,1057.0,3868.0,1484.0,-1160.0,0
1372.0,1713.0,-2507.0,2774.0,553.0,5715.0,-2187.0,2271.0,-3938.0,272.0,-6384.0,3759.0,3531.0,15028.0,-6476.0,4253.0,5582.0,2855.0,-369.0,-3198.0,-802.0,5675.0,-764.0,3832.0,-8488.0,7274.0,2055.0,9587.0,2544.0,10723.0,3121.0,-369.0,0
965.0,537.0,1160.0,-141.0,333.0,-886.0,542.0,-246.0,1095.0,340.0,1954.0,-647.0,-688.0,-3304.0,1844.0,-930.0,-1356.0,-530.0,452.0,1159.0,493.0,-855.0,381.0,-464.0,2349.0,-1017.0,-36.0,-1105.0,-230.0,-1615.0,81.0,1863.0,0
-543.0,-406.0,3411.0,-2101.0,114.0,-5211.0,2476.0,-1888.0,4263.0,259.0,7246.0,-3649.0,-3416.0,-15232.0,7239.0,-4350.0,-5764.0,-2685.0,975.0,3875.0,1404.0,-5058.0,1116.0,-3373.0,9509.0,-6571.0,-1560.0,-8320.0,-2079.0,-10067.0,-1948.0,1463.0,0
-307.0,639.0,45.0,569.0,333.0,870.0,-16.0,417.0,-385.0,186.0,-447.0,378.0,466.0,1629.0,-447.0,408.0,647.0,428.0,203.0,-141.0,206.0,956.0,46.0,587.0,-423.0,1039.0,353.0,1510.0,473.0,1234.0,825.0,-914.0,0
1215.0,1701.0,-2653.0,2849.0,576.0,5957.0,-2267.0,2356.0,-4124.0,251.0,-6695.0,3890.0,3705.0,15674.0,-6808.0,4435.0,5854.0,2968.0,-416.0,-3347.0,-869.0,5916.0,-817.0,4004.0,-8814.0,7535.0,2109.0,9968.0,2637.0,11115.0,3170.0,-746.0,0
1186.0,781.0,408.0,479.0,405.0,530.0,-45.0,312.0,52.0,367.0,238.0,299.0,243.0,579.0,108.0,199.0,83.0,184.0,292.0,287.0,207.0,534.0,154.0,475.0,116.0,740.0,455.0,1203.0,395.0,1035.0,692.0,1553.0,0
-332.0,-398.0,3517.0,-2106.0,152.0,-5252.0,2494.0,-1894.0,4343.0,331.0,7410.0,-3684.0,-3418.0,-15428.0,7380.0,-4377.0,-5889.0,-2710.0,1030.0,3985.0,1431.0,-5132.0,1152.0,-3384.0,9696.0,-6622.0,-1521.0,-8398.0,-2063.0,-10161.0,-1978.0,1695.0,0
-495.0,374.0,830.0,-49.0,278.0,-533.0,562.0,-106.0,673.0,201.0,1327.0,-574.0,-408.0,-2231.0,1324.0,-673.0,-862.0,-275.0,396.0,775.0,505.0,-434.0,296.0,-320.0,1928.0,-719.0,-104.0,-796.0,-108.0,-1456.0,176.0,-688.0,0
1004.0,1658.0,-2585.0,2804.0,545.0,5835.0,-2207.0,2314.0,-4077.0,221.0,-6593.0,3787.0,3618.0,15400.0,-6682.0,4374.0,5715.0,2928.0,-404.0,-3320.0,-838.0,5811.0,-796.0,3917.0,-8580.0,7359.0,2024.0,9722.0,2583.0,10775.0,3120.0,-1163.0,0
1339.0,1041.0,-331.0,1087.0,462.0,1908.0,-625.0,822.0,-1004.0,336.0,-1533.0,1198.0,1096.0,4391.0,-1656.0,1303.0,1485.0,878.0,123.0,-637.0,-82.0,1881.0,-79.0,1390.0,-2084.0,2458.0,842.0,3423.0,955.0,3568.0,1338.0,1129.0,0
-120.0,-312.0,3390.0,-1976.0,205.0,-4952.0,2362.0,-1767.0,4158.0,342.0,7046.0,-3483.0,-3252.0,-14663.0,6999.0,-4118.0,-5627.0,-2589.0,1007.0,3803.0,1362.0,-4862.0,1149.0,-3164.0,9291.0,-6258.0,-1439.0,-7916.0,-1948.0,-9602.0,-1847.0,1884.0,0
-648.0,145.0,1555.0,-627.0,254.0,-1836.0,1142.0,-585.0,1681.0,215.0,2996.0,-1452.0,-1247.0,-5938.0,2975.0,-1703.0,-2248.0,-959.0,586.0,1645.0,768.0,-1744.0,575.0,-1176.0,4172.0,-2388.0,-529.0,-2965.0,-692.0,-3944.0,-442.0,-296.0,0
736.0,1541.0,-2394.0,2599.0,533.0,5377.0,-1968.0,2142.0,-3765.0,194.0,-6062.0,3448.0,3330.0,14108.0,-6138.0,3970.0,5253.0,2675.0,-355.0,-3048.0,-736.0,5352.0,-686.0,3592.0,-7771.0,6774.0,1848.0,8935.0,2347.0,9868.0,2901.0,-1346.0,0
1442.0,1263.0,-1074.0,1644.0,521.0,3164.0,-1139.0,1287.0,-2000.0,320.0,-3136.0,2041.0,1912.0,7908.0,-3271.0,2249.0,2828.0,1494.0,-65.0,-1496.0,-351.0,3121.0,-270.0,2202.0,-4147.0,4063.0,1261.0,5495.0,1461.0,5976.0,1913.0,767.0,0
120.0,-185.0,3028.0,-1704.0,235.0,-4359.0,2084.0,-1569.0,3643.0,329.0,6300.0,-3046.0,-2872.0,-12927.0,6209.0,-3669.0,-4971.0,-2325.0,896.0,3379.0,1193.0,-4265.0,1040.0,-2753.0,8229.0,-5444.0,-1201.0,-6864.0,-1719.0,-8349.0,-1551.0,2019.0,0
-746.0,-76.0,2187.0,-1153.0,228.0,-3047.0,1641.0,-1076.0,2539.0,189.0,4501.0,-2262.0,-2029.0,-9240.0,4499.0,-2678.0,-3468.0,-1599.0,730.0,2418.0,986.0,-2913.0,777.0,-1972.0,6087.0,-3864.0,-904.0,-4906.0,-1215.0,-6176.0,-963.0,158.0,0
457.0,1378.0,-2002.0,2255.0,500.0,4609.0,-1619.0,1832.0,-3215.0,152.0,-5091.0,2916.0,2851.0,11972.0,-5138.0,3328.0,4503.0,2281.0,-226.0,-2551.0,-573.0,4611.0,-560.0,3042.0,-6508.0,5784.0,1589.0,7624.0,2013.0,8323.0,2547.0,-1368.0,0
1485.0,1475.0,-1686.0,2163.0,540.0,4277.0,-1576.0,1728.0,-2832.0,294.0,-4506.0,2816.0,2641.0,11003.0,-4636.0,3120.0,4040.0,2082.0,-150.0,-2203.0,-563.0,4239.0,-463.0,2899.0,-5993.0,5472.0,1633.0,7293.0,1960.0,8038.0,2429.0,460.0,0
443.0,52.0,2545.0,-1229.0,284.0,-3393.0,1692.0,-1167.0,2994.0,374.0,5177.0,-2338.0,-2227.0,-10289.0,5078.0,-2902.0,-3981.0,-1796.0,845.0,2835.0,1015.0,-3312.0,920.0,-2135.0,6663.0,-4212.0,-849.0,-5255.0,-1258.0,-6501.0,-1079.0,2140.0,0
-683.0,-189.0,2800.0,-1516.0,228.0,-3956.0,2094.0,-1383.0,3386.0,298.0,5832.0,-2823.0,-2569.0,-11919.0,5807.0,-3384.0,-4466.0,-2022.0,945.0,3132.0,1235.0,-3843.0,1050.0,-2583.0,7726.0,-5056.0,-1161.0,-6411.0,-1532.0,-7932.0,-1340.0,671.0,0
231.0,1204.0,-1340.0,1831.0,511.0,3602.0,-1113.0,1471.0,-2329.0,245.0,-3713.0,2260.0,2246.0,9091.0,-3767.0,2557.0,3455.0,1813.0,-17.0,-1823.0,-278.0,3608.0,-287.0,2389.0,-4745.0,4487.0,1267.0,5939.0,1646.0,6360.0,2134.0,-1309.0,0
1501.0,1661.0,-2112.0,2577.0,624.0,5187.0,-1907.0,2068.0,-3422.0,353.0,-5580.0,3413.0,3231.0,13433.0,-5701.0,3837.0,5008.0,2580.0,-195.0,-2718.0,-654.0,5112.0,-548.0,3519.0,-7415.0,6592.0,1939.0,8726.0,2359.0,9690.0,2886.0,6.0,0
755.0,323.0,1950.0,-669.0,376.0,-2163.0,1208.0,-719.0,2187.0,434.0,3711.0,-1533.0,-1449.0,-7004.0,3639.0,-1923.0,-2711.0,-1155.0,777.0,2121.0,842.0,-2130.0,736.0,-1300.0,4714.0,-2673.0,-405.0,-3264.0,-724.0,-4184.0,-500.0,2041.0,0
-627.0,-295.0,3223.0,-1839.0,196.0,-4690.0,2378.0,-1691.0,3968.0,318.0,6741.0,-3345.0,-3045.0,-13967.0,6747.0,-3949.0,-5257.0,-2391.0,1058.0,3621.0,1384.0,-4577.0,1145.0,-3046.0,8876.0,-5961.0,-1370.0,-7581.0,-1837.0,-9269.0,-1708.0,1069.0,0
-61.0,926.0,-684.0,1246.0,415.0,2330.0,-595.0,959.0,-1410.0,223.0,-2166.0,1346.0,1422.0,5570.0,-2188.0,1547.0,2110.0,1176.0,120.0,-1037.0,-48.0,2340.0,-122.0,1538.0,-2734.0,2863.0,837.0,3849.0,1093.0,3928.0,1504.0,-1161.0,0
1375.0,1684.0,-2460.0,2793.0,590.0,5752.0,-2158.0,2250.0,-3894.0,317.0,-6349.0,3749.0,3584.0,15010.0,-6441.0,4272.0,5570.0,2864.0,-316.0,-3150.0,-805.0,5687.0,-714.0,3857.0,-8419.0,7291.0,2059.0,9630.0,2582.0,10718.0,3126.0,-337.0,0
965.0,518.0,1218.0,-121.0,364.0,-857.0,601.0,-270.0,1155.0,415.0,2034.0,-649.0,-640.0,-3362.0,1951.0,-911.0,-1402.0,-524.0,518.0,1225.0,506.0,-840.0,445.0,-451.0,2457.0,-1010.0,-26.0,-1107.0,-173.0,-1669.0,100.0,1813.0,0
-523.0,-383.0,3449.0,-2058.0,156.0,-5117.0,2511.0,-1877.0,4291.0,322.0,7284.0,-3616.0,-3339.0,-15173.0,7305.0,-4303.0,-5759.0,-2653.0,1040.0,3905.0,1427.0,-5000.0,1165.0,-3339.0,9525.0,-6490.0,-1508.0,-8267.0,-1997.0,-10057.0,-1902.0,1401.0,0
-304.0,661.0,33.0,617.0,343.0,968.0,-20.0,447.0,-390.0,199.0,-485.0,407.0,527.0,1755.0,-419.0,471.0,666.0,441.0,248.0,-157.0,223.0,1037.0,75.0,624.0,-513.0,1127.0,371.0,1575.0,533.0,1275.0,870.0,-952.0,0
1205.0,1695.0,-2653.0,2880.0,558.0,5977.0,-2262.0,2343.0,-4121.0,239.0,-6731.0,3859.0,3701.0,15687.0,-6778.0,4460.0,5839.0,2952.0,-410.0,-3390.0,-873.0,5949.0,-798.0,3992.0,-8863.0,7535.0,2115.0,9974.0,2683.0,11072.0,3201.0,-808.0,0
1181.0,773.0,416.0,493.0,391.0,511.0,-27.0,251.0,75.0,352.0,239.0,234.0,203.0,491.0,143.0,182.0,64.0,138.0,271.0,259.0,190.0,536.0,170.0,445.0,127.0,708.0,435.0,1157.0,409.0,942.0,694.0,1495.0,0
-338.0,-397.0,3505.0,-2088.0,145.0,-5241.0,2506.0,-1946.0,4349.0,308.0,7383.0,-3706.0,-3438.0,-15426.0,7360.0,-4371.0,-5847.0,-2739.0,998.0,3944.0,1414.0,-5101.0,1177.0,-3398.0,9649.0,-6621.0,-1525.0,-8410.0,-2070.0,-10193.0,-1980.0,1689.0,0
-495.0,393.0,786.0,-26.0,278.0,-480.0,567.0,-138.0,638.0,192.0,1267.0,-574.0,-397.0,-2145.0,1233.0,-662.0,-766.0,-275.0,362.0,727.0,474.0,-379.0,314.0,-325.0,1818.0,-673.0,-91.0,-727.0,-133.0,-1388.0,191.0,-690.0,0
997.0,1660.0,-2635.0,2821.0,543.0,5847.0,-2202.0,2267.0,-4085.0,216.0,-6648.0,3746.0,3616.0,15397.0,-6754.0,4328.0,5771.0,2891.0,-433.0,-3366.0,-861.0,5823.0,-795.0,3889.0,-8659.0,7369.0,2027.0,9758.0,2555.0,10811.0,3126.0,-1093.0,0
1315.0,1030.0,-348.0,1096.0,442.0,1841.0,-620.0,746.0,-986.0,342.0,-1528.0,1134.0,1060.0,4267.0,-1681.0,1201.0,1494.0,831.0,98.0,-673.0,-96.0,1850.0,-90.0,1330.0,-2127.0,2415.0,822.0,3373.0,902.0,3529.0,1301.0,1204.0,0
-146.0,-320.0,3357.0,-1983.0,166.0,-5018.0,2345.0,-1840.0,4141.0,327.0,7037.0,-3535.0,-3293.0,-14738.0,6972.0,-4202.0,-5616.0,-2615.0,970.0,3774.0,1342.0,-4874.0,1105.0,-3207.0,9190.0,-6279.0,-1468.0,-7934.0,-2012.0,-9628.0,-1862.0,1879.0,0
-654.0,147.0,1504.0,-634.0,238.0,-1848.0,1107.0,-615.0,1629.0,200.0,2929.0,-1466.0,-1247.0,-5886.0,2917.0,-1716.0,-2186.0,-952.0,570.0,1607.0,758.0,-1699.0,545.0,-1187.0,4024.0,-2370.0,-560.0,-2905.0,-719.0,-3901.0,-418.0,-288.0,0
761.0,1562.0,-2396.0,2611.0,537.0,5359.0,-1992.0,2133.0,-3780.0,222.0,-6083.0,3456.0,3336.0,14138.0,-6175.0,3991.0,5309.0,2700.0,-344.0,-3052.0,-726.0,5396.0,-699.0,3576.0,-7874.0,6777.0,1835.0,8963.0,2313.0,9893.0,2926.0,-1272.0,0
1465.0,1270.0,-1043.0,1644.0,521.0,3093.0,-1152.0,1284.0,-1958.0,369.0,-3110.0,2035.0,1893.0,7812.0,-3255.0,2253.0,2846.0,1502.0,-48.0,-1451.0,-313.0,3130.0,-280.0,2180.0,-4163.0,4015.0,1255.0,5441.0,1412.0,5925.0,1918.0,877.0,0
165.0,-148.0,3068.0,-1692.0,239.0,-4390.0,2067.0,-1554.0,3704.0,383.0,6300.0,-3028.0,-2864.0,-12987.0,6233.0,-3648.0,-4960.0,-2290.0,919.0,3426.0,1253.0,-4253.0,1047.0,-2766.0,8230.0,-5472.0,-1205.0,-6886.0,-1750.0,-8365.0,-1532.0,2103.0,0
-670.0,-22.0,2222.0,-1116.0,232.0,-2998.0,1641.0,-1020.0,2585.0,260.0,4504.0,-2186.0,-1966.0,-9146.0,4480.0,-2597.0,-3412.0,-1536.0,750.0,2430.0,1058.0,-2844.0,793.0,-1946.0,6067.0,-3833.0,-870.0,-4827.0,-1197.0,-6089.0,-907.0,197.0,0
525.0,1402.0,-1948.0,2287.0,505.0,4635.0,-1617.0,1865.0,-3174.0,233.0,-5084.0,2970.0,2876.0,12044.0,-5159.0,3378.0,4537.0,2321.0,-220.0,-2553.0,-529.0,4660.0,-554.0,3073.0,-6522.0,5816.0,1634.0,7693.0,2025.0,8408.0,2609.0,-1361.0,0
1505.0,1461.0,-1637.0,2142.0,531.0,4240.0,-1600.0,1699.0,-2792.0,334.0,-4498.0,2785.0,2591.0,10908.0,-4632.0,3086.0,4003.0,2073.0,-164.0,-2193.0,-537.0,4207.0,-481.0,2893.0,-5954.0,5420.0,1631.0,7261.0,1905.0,8013.0,2450.0,409.0,0
428.0,33.0,2565.0,-1277.0,257.0,-3435.0,1668.0,-1199.0,3029.0,380.0,5160.0,-2404.0,-2293.0,-10410.0,5075.0,-2962.0,-4014.0,-1805.0,819.0,2845.0,1029.0,-3342.0,867.0,-2151.0,6694.0,-4275.0,-868.0,-5314.0,-1315.0,-6544.0,-1104.0,2023.0,0
-717.0,-221.0,2766.0,-1571.0,166.0,-4003.0,2031.0,-1409.0,3357.0,272.0,5722.0,-2878.0,-2610.0,-11926.0,5740.0,-3428.0,-4485.0,-2027.0,890.0,3097.0,1205.0,-3845.0,941.0,-2597.0,7673.0,-5097.0,-1174.0,-6421.0,-1582.0,-7929.0,-1381.0,501.0,0
200.0,1166.0,-1400.0,1772.0,418.0,3557.0,-1186.0,1453.0,-2394.0,194.0,-3839.0,2218.0,2199.0,9106.0,-3834.0,2537.0,3417.0,1791.0,-108.0,-1881.0,-352.0,3609.0,-399.0,2363.0,-4808.0,4437.0,1251.0,5933.0,1576.0,6350.0,2074.0,-1443.0,0
1475.0,1605.0,-2137.0,2510.0,540.0,5115.0,-1942.0,2050.0,-3451.0,307.0,-5629.0,3367.0,3152.0,13324.0,-5708.0,3800.0,4918.0,2523.0,-276.0,-2766.0,-725.0,5084.0,-652.0,3474.0,-7394.0,6505.0,1886.0,8649.0,2273.0,9599.0,2839.0,-51.0,0
725.0,275.0,1954.0,-727.0,306.0,-2243.0,1177.0,-741.0,2166.0,403.0,3716.0,-1571.0,-1530.0,-7163.0,3634.0,-1998.0,-2798.0,-1243.0,675.0,2099.0,777.0,-2166.0,653.0,-1339.0,4767.0,-2757.0,-452.0,-3369.0,-780.0,-4309.0,-526.0,1955.0,0
-622.0,-309.0,3204.0,-1874.0,164.0,-4709.0,2353.0,-1679.0,3925.0,310.0,6709.0,-3321.0,-3075.0,-13979.0,6692.0,-3983.0,-5264.0,-2450.0,988.0,3617.0,1348.0,-4542.0,1086.0,-3033.0,8898.0,-5957.0,-1387.0,-7597.0,-1829.0,-9308.0,-1686.0,968.0,0
-31.0,952.0,-725.0,1251.0,382.0,2321.0,-616.0,981.0,-1458.0,210.0,-2231.0,1394.0,1396.0,5641.0,-2254.0,1552.0,2130.0,1138.0,68.0,-1049.0,-82.0,2395.0,-164.0,1547.0,-2725.0,2904.0,816.0,3874.0,1094.0,3930.0,1529.0,-1246.0,0
1412.0,1728.0,-2467.0,2812.0,572.0,5728.0,-2162.0,2286.0,-3891.0,317.0,-6343.0,3778.0,3533.0,14999.0,-6455.0,4262.0,5571.0,2838.0,-339.0,-3131.0,-820.0,5684.0,-726.0,3852.0,-8334.0,7273.0,2059.0,9615.0,2570.0,10660.0,3126.0,-393.0,0
995.0,563.0,1232.0,-104.0,368.0,-892.0,601.0,-219.0,1176.0,410.0,2096.0,-667.0,-677.0,-3431.0,1944.0,-928.0,-1400.0,-534.0,516.0,1277.0,515.0,-861.0,465.0,-464.0,2578.0,-1048.0,-31.0,-1145.0,-192.0,-1755.0,72.0,1861.0,0
-507.0,-343.0,3440.0,-2040.0,142.0,-5134.0,2495.0,-1829.0,4289.0,319.0,7292.0,-3615.0,-3352.0,-15149.0,7231.0,-4284.0,-5717.0,-2636.0,1035.0,3928.0,1436.0,-4992.0,1190.0,-3324.0,9594.0,-6474.0,-1529.0,-8257.0,-2004.0,-10048.0,-1915.0,1380.0,0
-285.0,707.0,5.0,628.0,311.0,956.0,-54.0,497.0,-409.0,200.0,-499.0,442.0,528.0,1845.0,-529.0,483.0,711.0,494.0,221.0,-170.0,207.0,1050.0,85.0,627.0,-466.0,1183.0,370.0,1631.0,515.0,1343.0,868.0,-1021.0,0
1251.0,1752.0,-2647.0,2883.0,541.0,5972.0,-2271.0,2416.0,-4108.0,274.0,-6695.0,3919.0,3695.0,15710.0,-6804.0,4457.0,5850.0,3013.0,-398.0,-3326.0,-868.0,5946.0,-770.0,3989.0,-8737.0,7581.0,2129.0,9992.0,2660.0,11090.0,3214.0,-758.0,0
1200.0,812.0,427.0,467.0,379.0,497.0,-11.0,314.0,109.0,364.0,300.0,272.0,190.0,416.0,157.0,148.0,16.0,170.0,309.0,344.0,200.0,488.0,217.0,435.0,299.0,690.0,446.0,1124.0,371.0,912.0,700.0,1588.0,0
-338.0,-374.0,3471.0,-2107.0,154.0,-5237.0,2502.0,-1873.0,4342.0,311.0,7404.0,-3646.0,-3422.0,-15443.0,7356.0,-4370.0,-5873.0,-2707.0,1035.0,3986.0,1407.0,-5110.0,1207.0,-3385.0,9756.0,-6626.0,-1501.0,-8388.0,-2062.0,-10157.0,-1955.0,1711.0,0
-486.0,386.0,732.0,-29.0,264.0,-472.0,533.0,-74.0,595.0,169.0,1224.0,-505.0,-368.0,-2076.0,1214.0,-630.0,-776.0,-248.0,406.0,714.0,455.0,-366.0,330.0,-296.0,1831.0,-651.0,-78.0,-670.0,-90.0,-1303.0,212.0,-701.0,0
1022.0,1640.0,-2674.0,2781.0,519.0,5828.0,-2233.0,2302.0,-4109.0,193.0,-6635.0,3795.0,3610.0,15412.0,-6740.0,4358.0,5726.0,2915.0,-398.0,-3342.0,-865.0,5801.0,-795.0,3905.0,-8596.0,7364.0,2045.0,9780.0,2574.0,10857.0,3131.0,-1132.0,0
1356.0,986.0,-375.0,1044.0,434.0,1797.0,-614.0,770.0,-969.0,326.0,-1465.0,1159.0,1026.0,4196.0,-1599.0,1225.0,1428.0,819.0,126.0,-605.0,-91.0,1798.0,-94.0,1327.0,-2003.0,2359.0,850.0,3367.0,914.0,3489.0,1321.0,1154.0,0
-110.0,-359.0,3331.0,-1995.0,172.0,-5031.0,2350.0,-1813.0,4149.0,348.0,7055.0,-3483.0,-3294.0,-14731.0,7022.0,-4175.0,-5644.0,-2622.0,993.0,3802.0,1342.0,-4908.0,1112.0,-3204.0,9259.0,-6305.0,-1436.0,-7912.0,-1971.0,-9624.0,-1818.0,1858.0,0
-624.0,116.0,1460.0,-590.0,245.0,-1809.0,1093.0,-585.0,1620.0,226.0,2886.0,-1413.0,-1219.0,-5756.0,2921.0,-1691.0,-2185.0,-938.0,562.0,1581.0,744.0,-1698.0,541.0,-1172.0,3977.0,-2325.0,-528.0,-2835.0,-666.0,-3832.0,-355.0,-330.0,0
773.0,1540.0,-2450.0,2626.0,533.0,5410.0,-1998.0,2154.0,-3769.0,234.0,-6119.0,3471.0,3373.0,14213.0,-6135.0,4020.0,5299.0,2716.0,-356.0,-3076.0,-730.0,5373.0,-728.0,3598.0,-7927.0,6815.0,1867.0,9019.0,2377.0,9947.0,2965.0,-1317.0,0
1468.0,1257.0,-1071.0,1641.0,500.0,3120.0,-1144.0,1274.0,-1914.0,361.0,-3080.0,2013.0,1897.0,7747.0,-3160.0,2241.0,2790.0,1508.0,-58.0,-1456.0,-322.0,3050.0,-307.0,2156.0,-4176.0,4008.0,1244.0,5425.0,1462.0,5880.0,1929.0,779.0,0
160.0,-162.0,3032.0,-1682.0,223.0,-4372.0,2063.0,-1555.0,3742.0,385.0,6313.0,-3059.0,-2852.0,-13030.0,6306.0,-3678.0,-4995.0,-2292.0,909.0,3418.0,1218.0,-4314.0,1009.0,-2799.0,8199.0,-5477.0,-1226.0,-6895.0,-1685.0,-8422.0,-1530.0,1956.0,0
-700.0,-21.0,2159.0,-1112.0,203.0,-2958.0,1578.0,-1045.0,2577.0,265.0,4437.0,-2207.0,-1938.0,-9066.0,4477.0,-2615.0,-3406.0,-1526.0,743.0,2390.0,1001.0,-2867.0,753.0,-1958.0,5928.0,-3798.0,-880.0,-4798.0,-1129.0,-6074.0,-932.0,38.0,0
490.0,1409.0,-2028.0,2274.0,477.0,4667.0,-1691.0,1826.0,-3168.0,218.0,-5135.0,2947.0,2883.0,12112.0,-5170.0,3386.0,4516.0,2338.0,-229.0,-2591.0,-578.0,4639.0,-587.0,3065.0,-6685.0,5833.0,1595.0,7703.0,2082.0,8420.0,2562.0,-1459.0,0
1497.0,1468.0,-1683.0,2134.0,515.0,4246.0,-1607.0,1667.0,-2715.0,337.0,-4449.0,2765.0,2593.0,10864.0,-4573.0,3105.0,3935.0,2079.0,-171.0,-2184.0,-547.0,4169.0,-491.0,2870.0,-6007.0,5395.0,1594.0,7204.0,1941.0,7934.0,2404.0,405.0,0
434.0,43.0,2557.0,-1268.0,243.0,-3420.0,1676.0,-1222.0,3091.0,398.0,5214.0,-2401.0,-2270.0,-10456.0,5123.0,-2926.0,-4071.0,-1810.0,816.0,2848.0,1035.0,-3388.0,872.0,-2166.0,6677.0,-4294.0,-878.0,-5367.0,-1288.0,-6622.0,-1125.0,2075.0,0
-688.0,-178.0,2730.0,-1522.0,190.0,-3932.0,2023.0,-1392.0,3348.0,298.0,5726.0,-2836.0,-2560.0,-11833.0,5734.0,-3357.0,-4465.0,-2007.0,887.0,3079.0,1221.0,-3836.0,953.0,-2576.0,7577.0,-5039.0,-1163.0,-6398.0,-1537.0,-7912.0,-1375.0,606.0,0
215.0,1208.0,-1441.0,1825.0,447.0,3623.0,-1195.0,1487.0,-2401.0,221.0,-3850.0,2245.0,2253.0,9215.0,-3854.0,2601.0,3479.0,1842.0,-95.0,-1894.0,-322.0,3632.0,-377.0,2391.0,-4919.0,4499.0,1264.0,5982.0,1620.0,6395.0,2106.0,-1325.0,0
1460.0,1625.0,-2161.0,2515.0,539.0,5116.0,-1952.0,2046.0,-3428.0,308.0,-5602.0,3343.0,3159.0,13283.0,-5689.0,3799.0,4927.0,2540.0,-282.0,-2776.0,-689.0,5066.0,-636.0,3453.0,-7432.0,6471.0,1869.0,8613.0,2303.0,9551.0,2833.0,29.0,0
701.0,278.0,1923.0,-762.0,289.0,-2291.0,1163.0,-746.0,2183.0,371.0,3715.0,-1625.0,-1546.0,-7254.0,3663.0,-2023.0,-2838.0,-1230.0,659.0,2083.0,796.0,-2217.0,668.0,-1385.0,4731.0,-2837.0,-490.0,-3450.0,-804.0,-4404.0,-585.0,2005.0,0
-650.0,-319.0,3152.0,-1902.0,159.0,-4729.0,2292.0,-1668.0,3893.0,284.0,6627.0,-3344.0,-3065.0,-13946.0,6677.0,-3984.0,-5257.0,-2420.0,964.0,3550.0,1345.0,-4556.0,1098.0,-3064.0,8768.0,-5982.0,-1401.0,-7612.0,-1857.0,-9291.0,-1716.0,1022.0,0
-46.0,931.0,-751.0,1224.0,406.0,2337.0,-675.0,1006.0,-1492.0,212.0,-2320.0,1382.0,1443.0,5717.0,-2291.0,1564.0,2173.0,1187.0,58.0,-1116.0,-80.0,2422.0,-151.0,1563.0,-2845.0,2917.0,841.0,3901.0,1088.0,3998.0,1539.0,-1171.0,0
1384.0,1673.0,-2491.0,2739.0,580.0,5676.0,-2188.0,2236.0,-3912.0,280.0,-6383.0,3700.0,3540.0,14902.0,-6472.0,4211.0,5545.0,2840.0,-367.0,-3178.0,-833.0,5658.0,-725.0,3823.0,-8374.0,7212.0,2041.0,9540.0,2518.0,10607.0,3094.0,-362.0,0
952.0,487.0,1208.0,-204.0,355.0,-977.0,574.0,-292.0,1177.0,358.0,2060.0,-747.0,-722.0,-3607.0,1974.0,-1018.0,-1472.0,-569.0,492.0,1225.0,483.0,-928.0,442.0,-531.0,2588.0,-1154.0,-60.0,-1278.0,-274.0,-1858.0,21.0,1783.0,0
-550.0,-411.0,3434.0,-2082.0,143.0,-5155.0,2440.0,-1870.0,4258.0,289.0,7209.0,-3643.0,-3370.0,-15184.0,7225.0,-4339.0,-5745.0,-2647.0,1016.0,3855.0,1401.0,-5010.0,1157.0,-3361.0,9541.0,-6518.0,-1535.0,-8304.0,-2063.0,-10056.0,-1930.0,1297.0,0
-331.0,651.0,-4.0,612.0,318.0,981.0,-99.0,448.0,-465.0,169.0,-613.0,420.0,541.0,1905.0,-596.0,468.0,722.0,486.0,195.0,-245.0,174.0,1044.0,45.0,627.0,-568.0,1171.0,379.0,1651.0,479.0,1396.0,871.0,-1039.0,0
1189.0,1697.0,-2645.0,2845.0,551.0,5968.0,-2300.0,2346.0,-4123.0,239.0,-6751.0,3860.0,3706.0,15673.0,-6815.0,4425.0,5819.0,2972.0,-414.0,-3402.0,-884.0,5921.0,-813.0,3974.0,-8793.0,7523.0,2109.0,9955.0,2600.0,11079.0,3186.0,-784.0,0
1142.0,755.0,449.0,442.0,397.0,447.0,-25.0,252.0,133.0,353.0,301.0,210.0,184.0,299.0,224.0,111.0,-26.0,134.0,312.0,291.0,197.0,446.0,165.0,391.0,299.0,605.0,422.0,1019.0,319.0,817.0,654.0,1513.0,0
-368.0,-404.0,3501.0,-2102.0,170.0,-5248.0,2487.0,-1905.0,4367.0,310.0,7370.0,-3669.0,-3424.0,-15463.0,7374.0,-4392.0,-5872.0,-2718.0,1044.0,3954.0,1411.0,-5121.0,1162.0,-3405.0,9735.0,-6631.0,-1531.0,-8438.0,-2084.0,-10200.0,-1979.0,1638.0,0
-486.0,404.0,748.0,4.0,306.0,-392.0,527.0,-64.0,595.0,205.0,1166.0,-467.0,-336.0,-1955.0,1192.0,-609.0,-720.0,-214.0,419.0,693.0,461.0,-321.0,307.0,-260.0,1784.0,-560.0,-84.0,-632.0,-91.0,-1251.0,229.0,-722.0,0
1022.0,1670.0,-2629.0,2828.0,563.0,5895.0,-2217.0,2322.0,-4102.0,250.0,-6646.0,3811.0,3648.0,15442.0,-6717.0,4347.0,5760.0,2948.0,-374.0,-3349.0,-866.0,5832.0,-776.0,3906.0,-8589.0,7422.0,2041.0,9772.0,2569.0,10850.0,3140.0,-1104.0,0
1344.0,1028.0,-295.0,1070.0,461.0,1834.0,-586.0,780.0,-930.0,377.0,-1382.0,1137.0,1047.0,4102.0,-1544.0,1187.0,1420.0,841.0,161.0,-574.0,-63.0,1797.0,-34.0,1297.0,-1896.0,2361.0,857.0,3283.0,920.0,3426.0,1306.0,1288.0,0
-131.0,-322.0,3383.0,-1958.0,190.0,-4985.0,2376.0,-1804.0,4159.0,365.0,7133.0,-3501.0,-3272.0,-14752.0,7029.0,-4177.0,-5648.0,-2574.0,1019.0,3822.0,1370.0,-4879.0,1129.0,-3215.0,9352.0,-6286.0,-1410.0,-7972.0,-1964.0,-9644.0,-1841.0,2018.0,0
-662.0,129.0,1470.0,-581.0,244.0,-1750.0,1073.0,-594.0,1583.0,220.0,2893.0,-1415.0,-1216.0,-5673.0,2844.0,-1666.0,-2155.0,-885.0,570.0,1574.0,740.0,-1651.0,514.0,-1185.0,4002.0,-2277.0,-524.0,-2843.0,-673.0,-3786.0,-386.0,-255.0,0
716.0,1529.0,-2432.0,2603.0,511.0,5423.0,-2033.0,2145.0,-3801.0,208.0,-6104.0,3460.0,3333.0,14242.0,-6214.0,3997.0,5288.0,2724.0,-350.0,-3079.0,-755.0,5396.0,-736.0,3555.0,-7862.0,6822.0,1841.0,8978.0,2348.0,9940.0,2926.0,-1248.0,0
1433.0,1255.0,-1015.0,1617.0,514.0,3090.0,-1121.0,1279.0,-1892.0,365.0,-2991.0,1995.0,1861.0,7668.0,-3155.0,2206.0,2773.0,1513.0,-18.0,-1393.0,-295.0,3068.0,-285.0,2117.0,-4015.0,3981.0,1220.0,5341.0,1432.0,5825.0,1900.0,1116.0,0
125.0,-174.0,3070.0,-1691.0,242.0,-4380.0,2109.0,-1555.0,3750.0,397.0,6395.0,-3075.0,-2870.0,-13091.0,6304.0,-3682.0,-5001.0,-2269.0,949.0,3484.0,1266.0,-4267.0,1051.0,-2801.0,8344.0,-5484.0,-1231.0,-6954.0,-1695.0,-8426.0,-1546.0,2310.0,0
-703.0,-43.0,2169.0,-1079.0,240.0,-2928.0,1614.0,-1020.0,2533.0,269.0,4427.0,-2189.0,-1926.0,-9024.0,4410.0,-2576.0,-3373.0,-1498.0,752.0,2398.0,1030.0,-2815.0,782.0,-1928.0,5974.0,-3730.0,-874.0,-4758.0,-1109.0,-5999.0,-906.0,362.0,0
512.0,1387.0,-1992.0,2305.0,494.0,4665.0,-1647.0,1864.0,-3238.0,227.0,-5172.0,2942.0,2899.0,12131.0,-5243.0,3410.0,4550.0,2353.0,-227.0,-2577.0,-550.0,4660.0,-572.0,3092.0,-6647.0,5894.0,1613.0,7738.0,2086.0,8463.0,2597.0,-1079.0,0
1519.0,1455.0,-1631.0,2128.0,529.0,4195.0,-1569.0,1687.0,-2760.0,329.0,-4434.0,2727.0,2591.0,10759.0,-4569.0,3077.0,3926.0,2070.0,-142.0,-2127.0,-510.0,4164.0,-453.0,2883.0,-5912.0,5384.0,1599.0,7178.0,1920.0,7897.0,2398.0,841.0,0
428.0,22.0,2578.0,-1275.0,278.0,-3468.0,1698.0,-1214.0,3053.0,375.0,5245.0,-2434.0,-2290.0,-10561.0,5144.0,-2957.0,-4094.0,-1825.0,833.0,2882.0,1062.0,-3396.0,901.0,-2169.0,6748.0,-4316.0,-888.0,-5380.0,-1316.0,-6651.0,-1156.0,2470.0,0
-713.0,-214.0,2724.0,-1518.0,203.0,-3939.0,2001.0,-1397.0,3288.0,273.0,5703.0,-2849.0,-2565.0,-11816.0,5676.0,-3357.0,-4451.0,-2015.0,871.0,3058.0,1209.0,-3819.0,950.0,-2572.0,7566.0,-5009.0,-1172.0,-6359.0,-1544.0,-7865.0,-1402.0,943.0,0
208.0,1172.0,-1458.0,1838.0,454.0,3641.0,-1216.0,1480.0,-2452.0,207.0,-3861.0,2259.0,2249.0,9252.0,-3915.0,2600.0,3481.0,1815.0,-109.0,-1925.0,-350.0,3639.0,-380.0,2394.0,-4964.0,4552.0,1266.0,6029.0,1611.0,6451.0,2060.0,-991.0,0
1471.0,1590.0,-2148.0,2537.0,574.0,5114.0,-1946.0,2052.0,-3425.0,328.0,-5533.0,3350.0,3167.0,13223.0,-5674.0,3803.0,4904.0,2522.0,-267.0,-2741.0,-708.0,5020.0,-611.0,3438.0,-7410.0,6474.0,1882.0,8591.0,2283.0,9535.0,2766.0,392.0,0
720.0,264.0,1948.0,-730.0,315.0,-2268.0,1193.0,-729.0,2213.0,420.0,3806.0,-1609.0,-1517.0,-7312.0,3707.0,-2004.0,-2843.0,-1236.0,704.0,2158.0,803.0,-2265.0,704.0,-1385.0,4801.0,-2840.0,-470.0,-3476.0,-780.0,-4412.0,-615.0,2345.0,0
-608.0,-299.0,3182.0,-1828.0,175.0,-4642.0,2336.0,-1604.0,3920.0,330.0,6691.0,-3303.0,-2994.0,-13882.0,6687.0,-3921.0,-5210.0,-2375.0,1015.0,3622.0,1368.0,-4547.0,1115.0,-3019.0,8779.0,-5909.0,-1364.0,-7540.0,-1808.0,-9215.0,-1732.0,1280.0,0
-6.0,947.0,-737.0,1289.0,408.0,2421.0,-649.0,1077.0,-1484.0,230.0,-2289.0,1425.0,1491.0,5809.0,-2295.0,1619.0,2216.0,1210.0,103.0,-1065.0,-68.0,2413.0,-129.0,1605.0,-2909.0,3005.0,878.0,3994.0,1129.0,4084.0,1515.0,-916.0,0
1425.0,1694.0,-2448.0,2790.0,595.0,5711.0,-2176.0,2311.0,-3875.0,308.0,-6305.0,3723.0,3546.0,14892.0,-6419.0,4238.0,5532.0,2829.0,-316.0,-3101.0,-817.0,5614.0,-691.0,3838.0,-8395.0,7238.0,2079.0,9557.0,2534.0,10614.0,3060.0,-43.0,0
982.0,511.0,1275.0,-131.0,391.0,-966.0,612.0,-230.0,1223.0,398.0,2168.0,-711.0,-694.0,-3651.0,2047.0,-1007.0,-1499.0,-563.0,546.0,1324.0,523.0,-968.0,475.0,-517.0,2594.0,-1139.0,-23.0,-1273.0,-252.0,-1899.0,6.0,2133.0,0
-496.0,-396.0,3452.0,-2018.0,180.0,-5141.0,2492.0,-1817.0,4263.0,342.0,7276.0,-3583.0,-3324.0,-15111.0,7251.0,-4300.0,-5730.0,-2599.0,1072.0,3937.0,1426.0,-5003.0,1180.0,-3313.0,9488.0,-6467.0,-1467.0,-8244.0,-2017.0,-10028.0,-1920.0,1644.0,0
-248.0,686.0,-7.0,669.0,347.0,1022.0,-66.0,527.0,-487.0,242.0,-574.0,513.0,597.0,2040.0,-600.0,547.0,768.0,542.0,262.0,-185.0,193.0,1113.0,76.0,696.0,-639.0,1272.0,447.0,1735.0,540.0,1488.0,904.0,-765.0,0
1261.0,1736.0,-2623.0,2907.0,583.0,5981.0,-2244.0,2416.0,-4135.0,293.0,-6685.0,3934.0,3736.0,15718.0,-6789.0,4475.0,5841.0,3007.0,-350.0,-3312.0,-869.0,5930.0,-786.0,4001.0,-8786.0,7599.0,2153.0,9980.0,2648.0,11113.0,3218.0,-573.0,0
1193.0,787.0,489.0,477.0,405.0,420.0,36.0,299.0,138.0,400.0,381.0,242.0,182.0,249.0,275.0,115.0,-42.0,147.0,360.0,395.0,237.0,419.0,200.0,392.0,341.0,639.0,437.0,999.0,331.0,776.0,676.0,1693.0,0
-348.0,-366.0,3498.0,-2086.0,164.0,-5264.0,2517.0,-1864.0,4335.0,343.0,7394.0,-3659.0,-3412.0,-15448.0,7382.0,-4379.0,-5873.0,-2704.0,1060.0,3988.0,1418.0,-5118.0,1176.0,-3392.0,9696.0,-6591.0,-1505.0,-8396.0,-2087.0,-10189.0,-1968.0,1713.0,0
-476.0,418.0,722.0,38.0,304.0,-380.0,526.0,-38.0,548.0,219.0,1142.0,-446.0,-304.0,-1855.0,1175.0,-574.0,-677.0,-195.0,416.0,685.0,459.0,-272.0,307.0,-237.0,1689.0,-505.0,-27.0,-556.0,-65.0,-1185.0,254.0,-623.0,0
1038.0,1664.0,-2635.0,2842.0,567.0,5891.0,-2192.0,2336.0,-4104.0,256.0,-6631.0,3821.0,3665.0,15484.0,-6694.0,4371.0,5793.0,2967.0,-358.0,-3319.0,-848.0,5839.0,-767.0,3909.0,-8642.0,7454.0,2078.0,9788.0,2588.0,10862.0,3159.0,-961.0,0
1353.0,1014.0,-286.0,1072.0,458.0,1783.0,-548.0,774.0,-914.0,364.0,-1350.0,1120.0,1040.0,4048.0,-1470.0,1179.0,1397.0,847.0,174.0,-551.0,-57.0,1747.0,-44.0,1256.0,-1920.0,2341.0,849.0,3224.0,884.0,3361.0,1285.0,1272.0,0
-129.0,-320.0,3362.0,-1965.0,174.0,-5035.0,2378.0,-1836.0,4151.0,333.0,7098.0,-3534.0,-3296.0,-14793.0,7071.0,-4181.0,-5649.0,-2602.0,1023.0,3801.0,1343.0,-4933.0,1128.0,-3273.0,9292.0,-6293.0,-1425.0,-7997.0,-2005.0,-9683.0,-1881.0,1900.0,0
-617.0,163.0,1441.0,-547.0,235.0,-1731.0,1086.0,-588.0,1575.0,234.0,2833.0,-1388.0,-1176.0,-5601.0,2851.0,-1630.0,-2096.0,-875.0,597.0,1546.0,732.0,-1635.0,547.0,-1158.0,3917.0,-2194.0,-458.0,-2758.0,-651.0,-3724.0,-364.0,-287.0,0
804.0,1554.0,-2442.0,2647.0,546.0,5451.0,-2001.0,2143.0,-3793.0,246.0,-6118.0,3503.0,3396.0,14302.0,-6175.0,4037.0,5351.0,2743.0,-311.0,-3077.0,-755.0,5408.0,-673.0,3599.0,-7906.0,6912.0,1941.0,9071.0,2405.0,10021.0,2971.0,-1227.0,0
1451.0,1233.0,-1057.0,1604.0,514.0,3050.0,-1123.0,1212.0,-1890.0,341.0,-2981.0,1945.0,1826.0,7569.0,-3132.0,2176.0,2717.0,1448.0,-27.0,-1425.0,-357.0,2979.0,-252.0,2079.0,-4017.0,3956.0,1273.0,5316.0,1426.0,5778.0,1878.0,853.0,0
135.0,-220.0,3011.0,-1731.0,208.0,-4444.0,2080.0,-1629.0,3715.0,356.0,6359.0,-3128.0,-2942.0,-13184.0,6282.0,-3743.0,-5069.0,-2354.0,890.0,3410.0,1171.0,-4390.0,1034.0,-2866.0,8294.0,-5526.0,-1226.0,-6994.0,-1737.0,-8503.0,-1592.0,1986.0,0
-701.0,-101.0,2078.0,-1115.0,198.0,-2945.0,1569.0,-1044.0,2466.0,239.0,4345.0,-2203.0,-1955.0,-8984.0,4343.0,-2588.0,-3376.0,-1544.0,685.0,2309.0,952.0,-2851.0,753.0,-1956.0,5879.0,-3732.0,-895.0,-4733.0,-1139.0,-5988.0,-921.0,47.0,0
505.0,1334.0,-2069.0,2271.0,489.0,4675.0,-1694.0,1865.0,-3246.0,204.0,-5221.0,2943.0,2876.0,12156.0,-5279.0,3419.0,4562.0,2316.0,-260.0,-2638.0,-605.0,4642.0,-566.0,3072.0,-6681.0,5909.0,1602.0,7765.0,2064.0,8509.0,2585.0,-1436.0,0
1488.0,1411.0,-1647.0,2097.0,525.0,4149.0,-1589.0,1657.0,-2731.0,314.0,-4436.0,2677.0,2523.0,10650.0,-4561.0,3042.0,3914.0,1994.0,-169.0,-2174.0,-552.0,4078.0,-459.0,2820.0,-5872.0,5338.0,1573.0,7111.0,1897.0,7853.0,2363.0,390.0,0
410.0,-39.0,2566.0,-1330.0,260.0,-3534.0,1672.0,-1269.0,3071.0,349.0,5209.0,-2503.0,-2348.0,-10665.0,5134.0,-3034.0,-4107.0,-1903.0,809.0,2853.0,1022.0,-3483.0,879.0,-2231.0,6789.0,-4400.0,-927.0,-5472.0,-1332.0,-6717.0,-1184.0,1959.0,0
-718.0,-257.0,2690.0,-1568.0,195.0,-3953.0,1994.0,-1404.0,3292.0,252.0,5613.0,-2874.0,-2598.0,-11777.0,5622.0,-3395.0,-4429.0,-2040.0,873.0,3009.0,1170.0,-3821.0,923.0,-2570.0,7540.0,-5018.0,-1193.0,-6360.0,-1534.0,-7829.0,-1372.0,465.0,0
210.0,1147.0,-1473.0,1793.0,449.0,3645.0,-1210.0,1485.0,-2459.0,207.0,-3961.0,2252.0,2231.0,9330.0,-3950.0,2565.0,3514.0,1824.0,-114.0,-1962.0,-379.0,3665.0,-401.0,2417.0,-4979.0,4564.0,1234.0,6032.0,1642.0,6519.0,2121.0,-1403.0,0
1450.0,1560.0,-2130.0,2469.0,567.0,5067.0,-1909.0,2018.0,-3404.0,301.0,-5579.0,3310.0,3119.0,13182.0,-5648.0,3721.0,4865.0,2490.0,-280.0,-2734.0,-720.0,5000.0,-618.0,3419.0,-7319.0,6435.0,1824.0,8528.0,2299.0,9498.0,2816.0,1.0,0
672.0,217.0,1963.0,-813.0,318.0,-2358.0,1189.0,-797.0,2217.0,368.0,3781.0,-1693.0,-1618.0,-7421.0,3710.0,-2106.0,-2913.0,-1295.0,662.0,2144.0,766.0,-2323.0,676.0,-1446.0,4896.0,-2920.0,-549.0,-3568.0,-816.0,-4502.0,-622.0,1914.0,0
-665.0,-333.0,3149.0,-1893.0,178.0,-4690.0,2294.0,-1698.0,3878.0,288.0,6592.0,-3361.0,-3073.0,-13842.0,6603.0,-3979.0,-5243.0,-2419.0,958.0,3547.0,1311.0,-4577.0,1081.0,-3065.0,8805.0,-5950.0,-1416.0,-7562.0,-1839.0,-9218.0,-1722.0,909.0,0
-40.0,935.0,-773.0,1260.0,408.0,2424.0,-680.0,1009.0,-1532.0,200.0,-2380.0,1378.0,1447.0,5889.0,-2389.0,1604.0,2214.0,1206.0,41.0,-1148.0,-103.0,2460.0,-160.0,1582.0,-2899.0,3008.0,858.0,4003.0,1117.0,4134.0,1547.0,-1218.0,0
1379.0,1670.0,-2470.0,2746.0,578.0,5663.0,-2181.0,2231.0,-3924.0,259.0,-6353.0,3636.0,3491.0,14857.0,-6439.0,4197.0,5504.0,2803.0,-368.0,-3164.0,-848.0,5589.0,-720.0,3786.0,-8308.0,7189.0,2020.0,9489.0,2511.0,10568.0,3063.0,-327.0,0
926.0,499.0,1244.0,-208.0,363.0,-1044.0,603.0,-333.0,1191.0,339.0,2112.0,-812.0,-778.0,-3767.0,2047.0,-1051.0,-1553.0,-637.0,490.0,1259.0,495.0,-1033.0,448.0,-607.0,2716.0,-1241.0,-108.0,-1407.0,-275.0,-2000.0,-32.0,1834.0,0
-557.0,-389.0,3386.0,-2076.0,133.0,-5163.0,2449.0,-1888.0,4201.0,245.0,7148.0,-3668.0,-3379.0,-15159.0,7192.0,-4329.0,-5752.0,-2694.0,978.0,3829.0,1388.0,-5044.0,1140.0,-3388.0,9520.0,-6531.0,-1575.0,-8309.0,-2035.0,-10080.0,-1970.0,1294.0,0
-297.0,660.0,-87.0,653.0,310.0,1029.0,-111.0,465.0,-537.0,153.0,-722.0,448.0,569.0,2084.0,-660.0,521.0,793.0,470.0,175.0,-280.0,148.0,1093.0,42.0,652.0,-665.0,1258.0,361.0,1725.0,540.0,1479.0,873.0,-1060.0,0
1220.0,1698.0,-2686.0,2873.0,532.0,5938.0,-2272.0,2329.0,-4127.0,246.0,-6761.0,3835.0,3657.0,15654.0,-6795.0,4407.0,5819.0,2922.0,-421.0,-3358.0,-892.0,5888.0,-794.0,3944.0,-8788.0,7538.0,2058.0,9906.0,2658.0,11051.0,3147.0,-771.0,0
1183.0,784.0,472.0,431.0,394.0,357.0,35.0,227.0,181.0,377.0,376.0,144.0,109.0,127.0,289.0,40.0,-77.0,60.0,319.0,401.0,230.0,379.0,207.0,345.0,413.0,559.0,344.0,905.0,365.0,700.0,590.0,1540.0,0
-360.0,-377.0,3472.0,-2113.0,140.0,-5271.0,2481.0,-1910.0,4337.0,302.0,7333.0,-3731.0,-3458.0,-15445.0,7329.0,-4422.0,-5873.0,-2767.0,1021.0,3992.0,1422.0,-5122.0,1165.0,-3408.0,9711.0,-6611.0,-1571.0,-8441.0,-2049.0,-10179.0,-2018.0,1554.0,0
-477.0,427.0,695.0,49.0,270.0,-337.0,503.0,-37.0,536.0,186.0,1038.0,-471.0,-317.0,-1747.0,1094.0,-558.0,-649.0,-211.0,383.0,680.0,468.0,-242.0,295.0,-219.0,1640.0,-468.0,-57.0,-510.0,10.0,-1079.0,244.0,-769.0,0
1049.0,1671.0,-2620.0,2854.0,547.0,5916.0,-2190.0,2332.0,-4076.0,239.0,-6699.0,3805.0,3639.0,15530.0,-6714.0,4378.0,5805.0,2959.0,-380.0,-3294.0,-835.0,5874.0,-772.0,3949.0,-8645.0,7447.0,2068.0,9821.0,2671.0,10933.0,3152.0,-1112.0,0
1366.0,1031.0,-261.0,1059.0,456.0,1772.0,-527.0,772.0,-855.0,353.0,-1369.0,1099.0,997.0,3984.0,-1416.0,1159.0,1375.0,820.0,156.0,-473.0,-41.0,1764.0,-44.0,1285.0,-1855.0,2288.0,830.0,3192.0,960.0,3343.0,1279.0,1157.0,0
-91.0,-296.0,3390.0,-1971.0,185.0,-4995.0,2405.0,-1806.0,4202.0,338.0,7079.0,-3510.0,-3298.0,-14769.0,7115.0,-4186.0,-5640.0,-2599.0,1016.0,3876.0,1365.0,-4894.0,1126.0,-3222.0,9302.0,-6304.0,-1440.0,-8000.0,-1919.0,-9651.0,-1846.0,1772.0,0
-589.0,179.0,1444.0,-545.0,235.0,-1660.0,1075.0,-559.0,1551.0,189.0,2740.0,-1348.0,-1166.0,-5470.0,2826.0,-1609.0,-2065.0,-876.0,546.0,1551.0,719.0,-1580.0,518.0,-1099.0,3790.0,-2183.0,-484.0,-2728.0,-579.0,-3626.0,-344.0,-426.0,0
817.0,1550.0,-2425.0,2647.0,506.0,5499.0,-2009.0,2161.0,-3815.0,196.0,-6196.0,3516.0,3363.0,14361.0,-6188.0,4049.0,5346.0,2729.0,-354.0,-3076.0,-767.0,5444.0,-705.0,3622.0,-8031.0,6874.0,1895.0,9045.0,2432.0,10048.0,2964.0,-1309.0,0
1504.0,1253.0,-953.0,1610.0,466.0,3068.0,-1068.0,1251.0,-1841.0,342.0,-2972.0,1990.0,1819.0,7558.0,-3031.0,2203.0,2705.0,1467.0,-3.0,-1339.0,-309.0,3021.0,-233.0,2101.0,-4047.0,3909.0,1254.0,5259.0,1459.0,5761.0,1870.0,853.0,0
170.0,-178.0,3078.0,-1725.0,191.0,-4402.0,2125.0,-1591.0,3763.0,359.0,6361.0,-3088.0,-2911.0,-13144.0,6385.0,-3696.0,-5076.0,-2320.0,928.0,3501.0,1237.0,-4319.0,1050.0,-2830.0,8258.0,-5549.0,-1192.0,-7018.0,-1699.0,-8478.0,-1591.0,1957.0,0
-684.0,-42.0,2089.0,-1098.0,186.0,-2883.0,1563.0,-1043.0,2464.0,225.0,4286.0,-2165.0,-1921.0,-8840.0,4355.0,-2546.0,-3364.0,-1505.0,700.0,2359.0,982.0,-2775.0,733.0,-1905.0,5742.0,-3717.0,-837.0,-4690.0,-1101.0,-5890.0,-905.0,-21.0,0
516.0,1397.0,-2061.0,2299.0,461.0,4722.0,-1680.0,1849.0,-3257.0,199.0,-5256.0,2993.0,2913.0,12296.0,-5266.0,3439.0,4574.0,2346.0,-261.0,-2599.0,-584.0,4707.0,-601.0,3113.0,-6814.0,5926.0,1652.0,7816.0,2112.0,8562.0,2610.0,-1459.0,0
1504.0,1448.0,-1621.0,2118.0,503.0,4159.0,-1536.0,1645.0,-2689.0,336.0,-4384.0,2714.0,2542.0,10663.0,-4473.0,3051.0,3871.0,2022.0,-150.0,-2092.0,-525.0,4123.0,-476.0,2840.0,-5893.0,5340.0,1616.0,7110.0,1943.0,7840.0,2376.0,433.0,0
405.0,0.0,2586.0,-1286.0,249.0,-3517.0,1737.0,-1266.0,3121.0,394.0,5284.0,-2486.0,-2338.0,-10668.0,5227.0,-2992.0,-4163.0,-1885.0,823.0,2919.0,1049.0,-3452.0,870.0,-2215.0,6774.0,-4380.0,-886.0,-5482.0,-1298.0,-6733.0,-1186.0,2034.0,0
-724.0,-221.0,2662.0,-1511.0,181.0,-3891.0,1998.0,-1419.0,3283.0,278.0,5616.0,-2836.0,-2555.0,-11695.0,5644.0,-3349.0,-4430.0,-2044.0,839.0,3029.0,1180.0,-3792.0,911.0,-2546.0,7434.0,-4962.0,-1143.0,-6305.0,-1508.0,-7787.0,-1404.0,501.0,0
209.0,1147.0,-1524.0,1848.0,436.0,3683.0,-1227.0,1440.0,-2474.0,220.0,-3967.0,2290.0,2274.0,9396.0,-3961.0,2607.0,3521.0,1807.0,-141.0,-1955.0,-380.0,3685.0,-438.0,2432.0,-5066.0,4606.0,1318.0,6114.0,1654.0,6561.0,2094.0,-1373.0,0
1458.0,1542.0,-2150.0,2494.0,554.0,5042.0,-1917.0,1964.0,-3391.0,327.0,-5522.0,3302.0,3125.0,13101.0,-5619.0,3721.0,4841.0,2445.0,-282.0,-2729.0,-707.0,4959.0,-660.0,3392.0,-7327.0,6399.0,1881.0,8520.0,2274.0,9442.0,2757.0,60.0,0
685.0,211.0,1969.0,-802.0,309.0,-2399.0,1206.0,-839.0,2235.0,393.0,3858.0,-1685.0,-1596.0,-7531.0,3772.0,-2112.0,-2946.0,-1316.0,678.0,2154.0,801.0,-2364.0,657.0,-1481.0,4906.0,-2960.0,-514.0,-3606.0,-846.0,-4580.0,-668.0,1967.0,0
-641.0,-323.0,3123.0,-1847.0,176.0,-4689.0,2292.0,-1708.0,3862.0,304.0,6614.0,-3310.0,-3040.0,-13843.0,6615.0,-3942.0,-5222.0,-2411.0,966.0,3544.0,1337.0,-4576.0,1062.0,-3052.0,8742.0,-5927.0,-1385.0,-7541.0,-1846.0,-9223.0,-1734.0,871.0,0
-35.0,947.0,-845.0,1299.0,398.0,2435.0,-705.0,980.0,-1567.0,224.0,-2389.0,1449.0,1483.0,5948.0,-2415.0,1660.0,2253.0,1198.0,45.0,-1160.0,-101.0,2444.0,-195.0,1584.0,-2953.0,3032.0,873.0,4051.0,1124.0,4155.0,1544.0,-1300.0,0
1399.0,1688.0,-2490.0,2774.0,578.0,5668.0,-2171.0,2215.0,-3875.0,312.0,-6300.0,3701.0,3529.0,14821.0,-6408.0,4240.0,5522.0,2814.0,-334.0,-3136.0,-796.0,5578.0,-701.0,3787.0,-8231.0,7197.0,2052.0,9500.0,2524.0,10553.0,3055.0,-335.0,0
943.0,490.0,1264.0,-208.0,370.0,-1055.0,622.0,-319.0,1248.0,416.0,2208.0,-791.0,-758.0,-3848.0,2096.0,-1043.0,-1555.0,-615.0,524.0,1310.0,539.0,-1077.0,488.0,-590.0,2842.0,-1247.0,-85.0,-1418.0,-300.0,-2043.0,-37.0,1861.0,0
-535.0,-388.0,3379.0,-2080.0,155.0,-5147.0,2461.0,-1875.0,4196.0,325.0,7221.0,-3637.0,-3343.0,-15135.0,7172.0,-4306.0,-5713.0,-2647.0,1011.0,3873.0,1417.0,-5036.0,1167.0,-3342.0,9617.0,-6487.0,-1531.0,-8270.0,-2052.0,-10035.0,-1950.0,1280.0,0
-265.0,708.0,-88.0,671.0,361.0,1097.0,-105.0,484.0,-553.0,221.0,-680.0,526.0,628.0,2188.0,-722.0,585.0,857.0,536.0,204.0,-259.0,198.0,1152.0,64.0,724.0,-576.0,1317.0,416.0,1818.0,543.0,1591.0,901.0,-1079.0,0
1234.0,1706.0,-2682.0,2877.0,571.0,5977.0,-2274.0,2314.0,-4124.0,277.0,-6700.0,3859.0,3701.0,15639.0,-6827.0,4427.0,5853.0,2964.0,-401.0,-3333.0,-859.0,5901.0,-783.0,3967.0,-8633.0,7507.0,2091.0,9919.0,2617.0,11060.0,3159.0,-808.0,0
1165.0,748.0,486.0,423.0,411.0,359.0,49.0,193.0,203.0,383.0,453.0,110.0,124.0,1.0,329.0,36.0,-84.0,90.0,318.0,423.0,231.0,330.0,212.0,297.0,580.0,465.0,367.0,850.0,294.0,605.0,594.0,1483.0,0
-353.0,-394.0,3473.0,-2110.0,157.0,-5255.0,2507.0,-1934.0,4348.0,313.0,7381.0,-3740.0,-3429.0,-15496.0,7358.0,-4379.0,-5859.0,-2703.0,995.0,3998.0,1411.0,-5127.0,1162.0,-3453.0,9824.0,-6658.0,-1536.0,-8443.0,-2081.0,-10221.0,-2005.0,1550.0,0
-484.0,397.0,664.0,23.0,270.0,-316.0,485.0,-74.0,482.0,177.0,1028.0,-476.0,-277.0,-1722.0,1044.0,-533.0,-629.0,-179.0,354.0,662.0,429.0,-205.0,270.0,-250.0,1683.0,-474.0,-28.0,-478.0,-42.0,-1088.0,257.0,-774.0,0
1019.0,1629.0,-2662.0,2807.0,527.0,5883.0,-2208.0,2276.0,-4126.0,202.0,-6691.0,3770.0,3660.0,15472.0,-6749.0,4371.0,5768.0,2928.0,-417.0,-3327.0,-890.0,5873.0,-795.0,3883.0,-8592.0,7408.0,2070.0,9793.0,2575.0,10839.0,3155.0,-1071.0,0
1301.0,975.0,-290.0,978.0,411.0,1690.0,-557.0,688.0,-866.0,317.0,-1312.0,1026.0,968.0,3814.0,-1421.0,1120.0,1295.0,729.0,98.0,-532.0,-109.0,1704.0,-52.0,1187.0,-1777.0,2202.0,795.0,3081.0,831.0,3175.0,1251.0,1151.0,0
-162.0,-343.0,3350.0,-2051.0,141.0,-5052.0,2350.0,-1858.0,4158.0,301.0,7093.0,-3575.0,-3313.0,-14872.0,7088.0,-4203.0,-5703.0,-2665.0,972.0,3819.0,1302.0,-4914.0,1131.0,-3279.0,9352.0,-6357.0,-1459.0,-8058.0,-2029.0,-9746.0,-1892.0,1692.0,0
-617.0,194.0,1408.0,-566.0,227.0,-1643.0,1045.0,-549.0,1519.0,191.0,2725.0,-1360.0,-1133.0,-5413.0,2785.0,-1555.0,-2045.0,-872.0,569.0,1547.0,687.0,-1520.0,535.0,-1096.0,3821.0,-2157.0,-467.0,-2660.0,-621.0,-3582.0,-348.0,-477.0,0
778.0,1570.0,-2446.0,2631.0,521.0,5501.0,-2023.0,2169.0,-3827.0,207.0,-6191.0,3510.0,3391.0,14365.0,-6211.0,4092.0,5383.0,2728.0,-337.0,-3056.0,-795.0,5494.0,-704.0,3625.0,-7990.0,6899.0,1895.0,9105.0,2396.0,10054.0,2961.0,-1340.0,0
1405.0,1241.0,-969.0,1575.0,478.0,3003.0,-1096.0,1215.0,-1846.0,315.0,-2943.0,1932.0,1768.0,7388.0,-3034.0,2155.0,2674.0,1415.0,-32.0,-1339.0,-355.0,2993.0,-265.0,2043.0,-3971.0,3861.0,1212.0,5217.0,1383.0,5636.0,1849.0,840.0,0
78.0,-142.0,3109.0,-1728.0,207.0,-4445.0,2119.0,-1594.0,3788.0,343.0,6397.0,-3105.0,-2941.0,-13261.0,6373.0,-3726.0,-5079.0,-2335.0,908.0,3484.0,1203.0,-4332.0,1037.0,-2879.0,8310.0,-5565.0,-1245.0,-7051.0,-1745.0,-8574.0,-1603.0,1977.0,0
-756.0,14.0,2126.0,-1074.0,201.0,-2874.0,1539.0,-1002.0,2461.0,212.0,4249.0,-2143.0,-1937.0,-8800.0,4299.0,-2532.0,-3320.0,-1483.0,680.0,2320.0,934.0,-2723.0,735.0,-1921.0,5709.0,-3660.0,-873.0,-4652.0,-1115.0,-5877.0,-914.0,11.0,0
459.0,1414.0,-2036.0,2299.0,484.0,4744.0,-1713.0,1869.0,-3290.0,171.0,-5321.0,3009.0,2886.0,12326.0,-5328.0,3441.0,4589.0,2361.0,-292.0,-2643.0,-629.0,4757.0,-612.0,3090.0,-6886.0,5954.0,1603.0,7839.0,2066.0,8585.0,2597.0,-1425.0,0
1463.0,1461.0,-1595.0,2079.0,543.0,4164.0,-1554.0,1654.0,-2701.0,298.0,-4397.0,2712.0,2491.0,10576.0,-4479.0,3020.0,3847.0,2004.0,-193.0,-2111.0,-534.0,4117.0,-483.0,2777.0,-5926.0,5276.0,1557.0,7051.0,1853.0,7761.0,2358.0,446.0,0
380.0,22.0,2602.0,-1345.0,264.0,-3518.0,1717.0,-1256.0,3111.0,351.0,5278.0,-2474.0,-2371.0,-10733.0,5233.0,-3025.0,-4165.0,-1904.0,796.0,2924.0,1039.0,-3456.0,862.0,-2266.0,6736.0,-4431.0,-937.0,-5535.0,-1379.0,-6814.0,-1207.0,2006.0,0
-723.0,-195.0,2680.0,-1535.0,184.0,-3864.0,1994.0,-1360.0,3239.0,228.0,5548.0,-2799.0,-2552.0,-11598.0,5602.0,-3308.0,-4392.0,-2016.0,834.0,3019.0,1180.0,-3716.0,914.0,-2539.0,7315.0,-4941.0,-1181.0,-6264.0,-1547.0,-7753.0,-1377.0,497.0,0
216.0,1175.0,-1522.0,1816.0,452.0,3731.0,-1246.0,1523.0,-2535.0,169.0,-4033.0,2299.0,2275.0,9498.0,-4033.0,2659.0,3535.0,1823.0,-148.0,-1979.0,-374.0,3752.0,-448.0,2442.0,-5227.0,4636.0,1261.0,6154.0,1621.0,6595.0,2117.0,-1326.0,0
1444.0,1557.0,-2135.0,2440.0,542.0,5037.0,-1929.0,2006.0,-3412.0,285.0,-5538.0,3275.0,3089.0,13046.0,-5630.0,3724.0,4787.0,2459.0,-300.0,-2693.0,-702.0,4974.0,-674.0,3360.0,-7404.0,6393.0,1825.0,8485.0,2225.0,9405.0,2764.0,66.0,0
656.0,203.0,1983.0,-838.0,304.0,-2403.0,1197.0,-805.0,2243.0,367.0,3858.0,-1703.0,-1658.0,-7604.0,3782.0,-2129.0,-3000.0,-1308.0,656.0,2208.0,814.0,-2354.0,650.0,-1508.0,4872.0,-2971.0,-559.0,-3657.0,-892.0,-4613.0,-661.0,1908.0,0
-657.0,-338.0,3114.0,-1854.0,193.0,-4638.0,2301.0,-1651.0,3858.0,273.0,6574.0,-3307.0,-3028.0,-13768.0,6585.0,-3928.0,-5205.0,-2376.0,939.0,3579.0,1344.0,-4511.0,1039.0,-3059.0,8664.0,-5892.0,-1391.0,-7509.0,-1849.0,-9137.0,-1711.0,803.0,0
-22.0,943.0,-829.0,1296.0,446.0,2508.0,-662.0,1043.0,-1560.0,200.0,-2457.0,1495.0,1527.0,6079.0,-2459.0,1682.0,2292.0,1285.0,38.0,-1125.0,-100.0,2550.0,-210.0,1613.0,-3062.0,3094.0,905.0,4125.0,1144.0,4293.0,1574.0,-1300.0,0
1382.0,1673.0,-2450.0,2744.0,605.0,5669.0,-2117.0,2238.0,-3835.0,272.0,-6307.0,3734.0,3523.0,14825.0,-6397.0,4206.0,5493.0,2843.0,-339.0,-3089.0,-815.0,5631.0,-739.0,3783.0,-8298.0,7191.0,2052.0,9492.0,2524.0,10587.0,3077.0,-348.0,0
939.0,474.0,1299.0,-213.0,379.0,-1086.0,672.0,-317.0,1333.0,353.0,2233.0,-782.0,-775.0,-3900.0,2144.0,-1098.0,-1616.0,-615.0,522.0,1382.0,533.0,-1046.0,452.0,-629.0,2791.0,-1296.0,-94.0,-1475.0,-306.0,-2068.0,-22.0,1819.0,0
-539.0,-396.0,3397.0,-2037.0,173.0,-5117.0,2473.0,-1847.0,4288.0,279.0,7190.0,-3595.0,-3336.0,-15052.0,7173.0,-4292.0,-5727.0,-2622.0,1022.0,3902.0,1420.0,-4965.0,1137.0,-3359.0,9498.0,-6479.0,-1523.0,-8256.0,-2023.0,-9978.0,-1904.0,1281.0,0
-256.0,695.0,-84.0,719.0,381.0,1150.0,-117.0,520.0,-487.0,213.0,-729.0,579.0,662.0,2329.0,-748.0,614.0,883.0,590.0,228.0,-243.0,175.0,1222.0,46.0,711.0,-735.0,1377.0,449.0,1869.0,592.0,1694.0,959.0,-1021.0,0
1259.0,1719.0,-2638.0,2896.0,613.0,5993.0,-2265.0,2330.0,-4061.0,265.0,-6676.0,3898.0,3725.0,15667.0,-6791.0,4427.0,5819.0,2973.0,-386.0,-3306.0,-861.0,5937.0,-774.0,3960.0,-8689.0,7541.0,2129.0,9922.0,2638.0,11105.0,3209.0,-725.0,0
1182.0,772.0,547.0,432.0,439.0,343.0,50.0,187.0,298.0,374.0,523.0,151.0,115.0,-52.0,390.0,7.0,-138.0,62.0,354.0,461.0,254.0,335.0,229.0,302.0,631.0,466.0,378.0,789.0,293.0,593.0,634.0,1550.0,0
-349.0,-355.0,3510.0,-2077.0,188.0,-5218.0,2495.0,-1899.0,4428.0,337.0,7423.0,-3668.0,-3416.0,-15436.0,7354.0,-4370.0,-5855.0,-2722.0,1051.0,3997.0,1440.0,-5106.0,1180.0,-3411.0,9854.0,-6621.0,-1524.0,-8438.0,-2071.0,-10188.0,-1942.0,1586.0,0
-466.0,459.0,677.0,91.0,319.0,-231.0,458.0,3.0,545.0,202.0,1030.0,-385.0,-243.0,-1539.0,1010.0,-468.0,-562.0,-149.0,385.0,627.0,453.0,-164.0,283.0,-174.0,1680.0,-390.0,-13.0,-405.0,-8.0,-980.0,322.0,-718.0,0
1018.0,1670.0,-2651.0,2847.0,563.0,5912.0,-2255.0,2328.0,-4101.0,215.0,-6679.0,3826.0,3645.0,15552.0,-6769.0,4385.0,5786.0,2937.0,-386.0,-3335.0,-864.0,5852.0,-801.0,3933.0,-8538.0,7445.0,2051.0,9794.0,2595.0,10893.0,3171.0,-992.0,0
1309.0,1017.0,-241.0,1007.0,441.0,1669.0,-563.0,731.0,-838.0,332.0,-1263.0,1064.0,945.0,3795.0,-1396.0,1087.0,1279.0,749.0,158.0,-483.0,-36.0,1657.0,-42.0,1226.0,-1637.0,2183.0,781.0,3047.0,863.0,3154.0,1251.0,1234.0,0
-146.0,-294.0,3407.0,-1981.0,174.0,-5040.0,2376.0,-1807.0,4199.0,321.0,7122.0,-3524.0,-3295.0,-14812.0,7079.0,-4210.0,-5672.0,-2625.0,1007.0,3877.0,1389.0,-4944.0,1127.0,-3230.0,9451.0,-6354.0,-1466.0,-8041.0,-1965.0,-9740.0,-1854.0,1751.0,0
-623.0,186.0,1423.0,-503.0,231.0,-1612.0,1036.0,-508.0,1501.0,190.0,2677.0,-1309.0,-1112.0,-5274.0,2693.0,-1560.0,-2016.0,-838.0,555.0,1516.0,724.0,-1544.0,488.0,-1058.0,3823.0,-2122.0,-459.0,-2617.0,-579.0,-3540.0,-304.0,-502.0,0
786.0,1549.0,-2436.0,2675.0,524.0,5510.0,-2051.0,2184.0,-3818.0,211.0,-6214.0,3522.0,3405.0,14461.0,-6273.0,4063.0,5363.0,2760.0,-338.0,-3090.0,-754.0,5457.0,-742.0,3654.0,-7940.0,6916.0,1905.0,9100.0,2417.0,10074.0,2983.0,-1388.0,0
1426.0,1216.0,-965.0,1568.0,482.0,2985.0,-1116.0,1207.0,-1812.0,334.0,-2903.0,1904.0,1762.0,7367.0,-3034.0,2108.0,2597.0,1400.0,-29.0,-1344.0,-301.0,2912.0,-299.0,2046.0,-3843.0,3806.0,1199.0,5157.0,1372.0,5585.0,1820.0,766.0,0
73.0,-205.0,3062.0,-1792.0,177.0,-4495.0,2056.0,-1644.0,3754.0,330.0,6385.0,-3151.0,-2977.0,-13320.0,6322.0,-3810.0,-5145.0,-2404.0,886.0,3445.0,1213.0,-4451.0,970.0,-2885.0,8401.0,-5647.0,-1278.0,-7125.0,-1782.0,-8651.0,-1661.0,1851.0,0
-729.0,-32.0,2042.0,-1114.0,159.0,-2866.0,1471.0,-1035.0,2414.0,200.0,4195.0,-2155.0,-1908.0,-8744.0,4208.0,-2583.0,-3316.0,-1526.0,667.0,2243.0,938.0,-2781.0,674.0,-1896.0,5716.0,-3670.0,-879.0,-4638.0,-1120.0,-5857.0,-927.0,-75.0,0
503.0,1403.0,-2108.0,2283.0,431.0,4756.0,-1763.0,1861.0,-3295.0,174.0,-5346.0,2994.0,2933.0,12372.0,-5362.0,3412.0,4592.0,2340.0,-292.0,-2679.0,-622.0,4710.0,-637.0,3118.0,-6865.0,5945.0,1605.0,7846.0,2090.0,8632.0,2617.0,-1445.0,0
1490.0,1447.0,-1611.0,2046.0,481.0,4109.0,-1576.0,1627.0,-2667.0,319.0,-4343.0,2674.0,2498.0,10474.0,-4442.0,2960.0,3815.0,1967.0,-180.0,-2081.0,-549.0,4025.0,-474.0,2788.0,-5817.0,5216.0,1538.0,6968.0,1886.0,7706.0,2370.0,443.0,0
392.0,23.0,2611.0,-1361.0,219.0,-3560.0,1699.0,-1278.0,3142.0,357.0,5326.0,-2483.0,-2397.0,-10845.0,5270.0,-3077.0,-4186.0,-1931.0,805.0,2955.0,1044.0,-3523.0,883.0,-2259.0,6828.0,-4487.0,-958.0,-5613.0,-1341.0,-6838.0,-1177.0,1977.0,0
-707.0,-181.0,2662.0,-1531.0,150.0,-3837.0,1946.0,-1381.0,3222.0,230.0,5531.0,-2758.0,-2569.0,-11563.0,5551.0,-3334.0,-4357.0,-2021.0,849.0,3029.0,1182.0,-3740.0,918.0,-2532.0,7323.0,-4931.0,-1175.0,-6249.0,-1491.0,-7678.0,-1332.0,415.0,0
269.0,1219.0,-1507.0,1855.0,440.0,3760.0,-1269.0,1498.0,-2536.0,189.0,-4050.0,2357.0,2287.0,9587.0,-4084.0,2663.0,3597.0,1847.0,-111.0,-1941.0,-376.0,3767.0,-424.0,2454.0,-5239.0,4676.0,1296.0,6173.0,1693.0,6706.0,2166.0,-1365.0,0
1505.0,1626.0,-2094.0,2484.0,562.0,5033.0,-1912.0,1987.0,-3361.0,316.0,-5473.0,3308.0,3093.0,13033.0,-5619.0,3711.0,4823.0,2472.0,-253.0,-2638.0,-682.0,4964.0,-610.0,3387.0,-7358.0,6382.0,1858.0,8450.0,2276.0,9444.0,2799.0,114.0,0
683.0,272.0,2012.0,-811.0,299.0,-2428.0,1217.0,-834.0,2302.0,378.0,3931.0,-1697.0,-1648.0,-7650.0,3817.0,-2140.0,-2988.0,-1323.0,695.0,2254.0,834.0,-2392.0,691.0,-1485.0,4913.0,-3003.0,-537.0,-3692.0,-847.0,-4620.0,-641.0,1973.0,0
-658.0,-277.0,3091.0,-1862.0,147.0,-4649.0,2270.0,-1668.0,3854.0,269.0,6556.0,-3304.0,-3051.0,-13717.0,6548.0,-3901.0,-5192.0,-2400.0,948.0,3551.0,1326.0,-4504.0,1039.0,-3027.0,8572.0,-5873.0,-1387.0,-7488.0,-1817.0,-9108.0,-1703.0,871.0,0
-29.0,972.0,-880.0,1299.0,372.0,2493.0,-725.0,1054.0,-1625.0,172.0,-2511.0,1486.0,1495.0,6155.0,-2523.0,1714.0,2299.0,1225.0,17.0,-1193.0,-132.0,2552.0,-242.0,1653.0,-3207.0,3118.0,893.0,4144.0,1169.0,4339.0,1579.0,-1230.0,0
1399.0,1675.0,-2472.0,2771.0,555.0,5641.0,-2145.0,2233.0,-3872.0,264.0,-6293.0,3696.0,3481.0,14778.0,-6401.0,4226.0,5477.0,2786.0,-367.0,-3111.0,-797.0,5595.0,-764.0,3804.0,-8363.0,7151.0,2041.0,9422.0,2536.0,10568.0,3058.0,-284.0,0
939.0,486.0,1298.0,-186.0,345.0,-1110.0,671.0,-337.0,1308.0,364.0,2285.0,-819.0,-833.0,-4027.0,2187.0,-1073.0,-1621.0,-662.0,502.0,1368.0,565.0,-1098.0,432.0,-622.0,2786.0,-1357.0,-109.0,-1560.0,-306.0,-2126.0,-54.0,1836.0,0
-550.0,-380.0,3390.0,-2009.0,136.0,-5095.0,2460.0,-1848.0,4222.0,295.0,7191.0,-3605.0,-3342.0,-15074.0,7168.0,-4255.0,-5686.0,-2648.0,1004.0,3865.0,1433.0,-4991.0,1109.0,-3325.0,9417.0,-6483.0,-1532.0,-8247.0,-2042.0,-9984.0,-1911.0,1259.0,0
-275.0,701.0,-102.0,745.0,335.0,1164.0,-133.0,527.0,-569.0,195.0,-784.0,570.0,650.0,2383.0,-811.0,647.0,920.0,554.0,207.0,-317.0,169.0,1215.0,5.0,766.0,-877.0,1398.0,443.0,1931.0,578.0,1719.0,983.0,-1047.0,0
1244.0,1701.0,-2619.0,2916.0,573.0,5954.0,-2255.0,2329.0,-4070.0,269.0,-6680.0,3893.0,3699.0,15641.0,-6787.0,4456.0,5839.0,2962.0,-364.0,-3317.0,-861.0,5895.0,-803.0,4009.0,-8765.0,7535.0,2121.0,9937.0,2631.0,11071.0,3232.0,-731.0,0
1139.0,750.0,562.0,423.0,431.0,293.0,82.0,178.0,284.0,380.0,556.0,131.0,85.0,-159.0,436.0,16.0,-173.0,46.0,372.0,477.0,263.0,270.0,208.0,330.0,601.0,416.0,346.0,748.0,268.0,530.0,625.0,1514.0,0
-395.0,-364.0,3485.0,-2085.0,194.0,-5242.0,2514.0,-1912.0,4353.0,326.0,7401.0,-3687.0,-3430.0,-15470.0,7349.0,-4392.0,-5880.0,-2726.0,1035.0,3979.0,1408.0,-5139.0,1153.0,-3394.0,9748.0,-6647.0,-1547.0,-8448.0,-2101.0,-10192.0,-1962.0,1507.0,0
-495.0,446.0,628.0,76.0,323.0,-235.0,461.0,-15.0,450.0,194.0,950.0,-391.0,-235.0,-1509.0,944.0,-484.0,-566.0,-147.0,367.0,584.0,414.0,-179.0,251.0,-145.0,1516.0,-383.0,-20.0,-360.0,-36.0,-926.0,318.0,-795.0,0
1023.0,1686.0,-2666.0,2841.0,581.0,5914.0,-2218.0,2337.0,-4117.0,229.0,-6701.0,3825.0,3659.0,15509.0,-6773.0,4374.0,5773.0,2932.0,-396.0,-3353.0,-865.0,5844.0,-806.0,3945.0,-8626.0,7445.0,2060.0,9829.0,2593.0,10931.0,3179.0,-1079.0,0
1302.0,1006.0,-248.0,998.0,460.0,1657.0,-518.0,730.0,-799.0,347.0,-1253.0,1036.0,926.0,3634.0,-1367.0,1059.0,1237.0,733.0,160.0,-489.0,-56.0,1602.0,-37.0,1207.0,-1659.0,2141.0,780.0,3012.0,846.0,3108.0,1220.0,1157.0,0
-162.0,-328.0,3361.0,-2005.0,179.0,-5045.0,2381.0,-1822.0,4208.0,329.0,7089.0,-3540.0,-3334.0,-14919.0,7051.0,-4223.0,-5690.0,-2643.0,997.0,3825.0,1332.0,-4975.0,1144.0,-3246.0,9402.0,-6384.0,-1465.0,-8057.0,-1993.0,-9748.0,-1896.0,1678.0,0
-632.0,163.0,1351.0,-506.0,234.0,-1608.0,1005.0,-537.0,1474.0,196.0,2599.0,-1304.0,-1131.0,-5255.0,2599.0,-1548.0,-1976.0,-852.0,517.0,1421.0,661.0,-1524.0,508.0,-1064.0,3739.0,-2111.0,-471.0,-2576.0,-588.0,-3467.0,-341.0,-527.0,0
761.0,1525.0,-2478.0,2648.0,507.0,5485.0,-2062.0,2149.0,-3850.0,196.0,-6286.0,3527.0,3375.0,14417.0,-6354.0,4032.0,5360.0,2728.0,-383.0,-3170.0,-835.0,5436.0,-746.0,3627.0,-7973.0,6899.0,1902.0,9114.0,2400.0,10102.0,2935.0,-1365.0,0
1411.0,1193.0,-947.0,1563.0,470.0,2935.0,-1087.0,1176.0,-1788.0,324.0,-2904.0,1869.0,1737.0,7235.0,-3037.0,2040.0,2553.0,1380.0,-26.0,-1361.0,-376.0,2873.0,-285.0,2035.0,-3776.0,3740.0,1191.0,5098.0,1373.0,5527.0,1794.0,815.0,0
66.0,-239.0,3100.0,-1751.0,174.0,-4509.0,2087.0,-1639.0,3787.0,326.0,6413.0,-3186.0,-2998.0,-13375.0,6339.0,-3820.0,-5179.0,-2388.0,900.0,3457.0,1173.0,-4445.0,1013.0,-2877.0,8448.0,-5673.0,-1285.0,-7142.0,-1762.0,-8656.0,-1644.0,1891.0,0
-730.0,-69.0,2089.0,-1059.0,172.0,-2831.0,1497.0,-985.0,2426.0,211.0,4195.0,-2119.0,-1903.0,-8655.0,4178.0,-2522.0,-3273.0,-1481.0,669.0,2259.0,913.0,-2748.0,707.0,-1843.0,5723.0,-3613.0,-863.0,-4569.0,-1085.0,-5787.0,-882.0,-27.0,0
514.0,1363.0,-2065.0,2325.0,462.0,4780.0,-1726.0,1900.0,-3304.0,185.0,-5334.0,3032.0,2955.0,12448.0,-5382.0,3482.0,4652.0,2375.0,-273.0,-2656.0,-632.0,4739.0,-603.0,3165.0,-6798.0,6014.0,1626.0,7895.0,2120.0,8662.0,2638.0,-1388.0,0
1496.0,1411.0,-1562.0,2060.0,514.0,4078.0,-1509.0,1642.0,-2649.0,301.0,-4295.0,2673.0,2516.0,10435.0,-4404.0,2974.0,3814.0,1992.0,-140.0,-2041.0,-524.0,4015.0,-434.0,2791.0,-5688.0,5226.0,1550.0,6933.0,1885.0,7667.0,2367.0,538.0,0
389.0,-13.0,2660.0,-1362.0,244.0,-3610.0,1759.0,-1256.0,3169.0,346.0,5374.0,-2519.0,-2388.0,-10879.0,5303.0,-3088.0,-4206.0,-1911.0,839.0,2980.0,1070.0,-3546.0,916.0,-2254.0,6953.0,-4491.0,-949.0,-5646.0,-1353.0,-6911.0,-1178.0,2027.0,0
-715.0,-205.0,2663.0,-1510.0,177.0,-3845.0,1992.0,-1342.0,3223.0,249.0,5536.0,-2769.0,-2535.0,-11467.0,5546.0,-3302.0,-4339.0,-1973.0,857.0,3009.0,1178.0,-3712.0,929.0,-2474.0,7395.0,-4878.0,-1142.0,-6206.0,-1480.0,-7674.0,-1315.0,434.0,0
249.0,1179.0,-1531.0,1869.0,456.0,3780.0,-1232.0,1538.0,-2533.0,224.0,-4062.0,2341.0,2311.0,9679.0,-4088.0,2693.0,3601.0,1889.0,-119.0,-1983.0,-393.0,3780.0,-419.0,2516.0,-5178.0,4718.0,1313.0,6249.0,1708.0,6726.0,2187.0,-1350.0,0
1464.0,1551.0,-2088.0,2463.0,565.0,5003.0,-1861.0,2004.0,-3338.0,333.0,-5469.0,3253.0,3086.0,12980.0,-5563.0,3676.0,4742.0,2454.0,-264.0,-2657.0,-699.0,4924.0,-614.0,3377.0,-7238.0,6354.0,1833.0,8423.0,2258.0,9366.0,2782.0,103.0,0
634.0,171.0,2018.0,-853.0,292.0,-2480.0,1265.0,-828.0,2304.0,385.0,3913.0,-1765.0,-1681.0,-7758.0,3872.0,-2207.0,-3090.0,-1355.0,673.0,2217.0,802.0,-2441.0,684.0,-1560.0,5024.0,-3071.0,-586.0,-3792.0,-892.0,-4733.0,-678.0,1900.0,0
-712.0,-375.0,3077.0,-1874.0,153.0,-4650.0,2282.0,-1648.0,3816.0,260.0,6462.0,-3335.0,-3031.0,-13692.0,6531.0,-3929.0,-5227.0,-2399.0,930.0,3481.0,1298.0,-4531.0,1016.0,-3076.0,8599.0,-5887.0,-1415.0,-7503.0,-1844.0,-9137.0,-1696.0,717.0,0
-57.0,918.0,-891.0,1296.0,396.0,2520.0,-730.0,1057.0,-1645.0,171.0,-2602.0,1476.0,1534.0,6243.0,-2564.0,1696.0,2304.0,1253.0,22.0,-1245.0,-152.0,2552.0,-245.0,1649.0,-3227.0,3150.0,876.0,4190.0,1148.0,4342.0,1597.0,-1416.0,0
1383.0,1641.0,-2458.0,2727.0,568.0,5595.0,-2137.0,2223.0,-3879.0,266.0,-6334.0,3647.0,3486.0,14743.0,-6385.0,4162.0,5424.0,2771.0,-344.0,-3136.0,-849.0,5553.0,-740.0,3761.0,-8326.0,7132.0,2001.0,9416.0,2478.0,10482.0,3062.0,-410.0,0
911.0,434.0,1295.0,-275.0,340.0,-1202.0,678.0,-359.0,1303.0,353.0,2268.0,-906.0,-838.0,-4130.0,2216.0,-1152.0,-1721.0,-701.0,510.0,1338.0,499.0,-1162.0,448.0,-694.0,2850.0,-1410.0,-147.0,-1617.0,-369.0,-2261.0,-70.0,1733.0,0
-555.0,-427.0,3346.0,-2080.0,138.0,-5163.0,2461.0,-1856.0,4213.0,290.0,7132.0,-3648.0,-3334.0,-15045.0,7149.0,-4300.0,-5730.0,-2664.0,1010.0,3802.0,1387.0,-4996.0,1127.0,-3370.0,9420.0,-6474.0,-1544.0,-8252.0,-2060.0,-10025.0,-1918.0,1155.0,0
-261.0,676.0,-164.0,701.0,342.0,1126.0,-157.0,517.0,-607.0,192.0,-871.0,562.0,674.0,2491.0,-854.0,633.0,903.0,546.0,208.0,-373.0,147.0,1245.0,23.0,742.0,-929.0,1438.0,434.0,1965.0,563.0,1736.0,962.0,-1125.0,0
1241.0,1697.0,-2653.0,2870.0,567.0,5899.0,-2270.0,2330.0,-4118.0,251.0,-6720.0,3852.0,3682.0,15647.0,-6796.0,4411.0,5795.0,2940.0,-384.0,-3354.0,-872.0,5897.0,-796.0,3931.0,-8773.0,7522.0,2084.0,9919.0,2608.0,11024.0,3182.0,-776.0,0
1155.0,725.0,576.0,370.0,404.0,203.0,93.0,174.0,264.0,377.0,568.0,81.0,37.0,-256.0,449.0,-52.0,-230.0,6.0,349.0,456.0,242.0,236.0,235.0,244.0,612.0,366.0,316.0,692.0,221.0,415.0,550.0,1499.0,0
-372.0,-421.0,3507.0,-2100.0,158.0,-5279.0,2507.0,-1914.0,4334.0,323.0,7374.0,-3695.0,-3438.0,-15474.0,7349.0,-4402.0,-5862.0,-2746.0,1028.0,3968.0,1411.0,-5136.0,1183.0,-3445.0,9701.0,-6656.0,-1556.0,-8451.0,-2119.0,-10237.0,-1998.0,1494.0,0
-477.0,389.0,627.0,97.0,281.0,-233.0,432.0,1.0,421.0,182.0,884.0,-378.0,-221.0,-1398.0,890.0,-476.0,-507.0,-140.0,355.0,585.0,403.0,-122.0,263.0,-198.0,1401.0,-344.0,-15.0,-318.0,-34.0,-881.0,295.0,-847.0,0
1023.0,1604.0,-2654.0,2835.0,543.0,5886.0,-2239.0,2314.0,-4124.0,210.0,-6728.0,3791.0,3652.0,15533.0,-6820.0,4337.0,5795.0,2939.0,-418.0,-3344.0,-900.0,5857.0,-800.0,3873.0,-8701.0,7445.0,2056.0,9810.0,2557.0,10919.0,3118.0,-1102.0,0
1285.0,909.0,-211.0,955.0,423.0,1577.0,-517.0,663.0,-794.0,316.0,-1214.0,969.0,894.0,3546.0,-1335.0,981.0,1195.0,704.0,133.0,-460.0,-70.0,1561.0,-36.0,1115.0,-1662.0,2087.0,759.0,2921.0,779.0,3034.0,1160.0,1194.0,0
-176.0,-397.0,3385.0,-2013.0,148.0,-5084.0,2395.0,-1857.0,4207.0,302.0,7130.0,-3575.0,-3330.0,-14940.0,7089.0,-4279.0,-5723.0,-2644.0,986.0,3851.0,1335.0,-4982.0,1127.0,-3307.0,9370.0,-6384.0,-1467.0,-8102.0,-2036.0,-9772.0,-1915.0,1739.0,0
-593.0,157.0,1385.0,-476.0,237.0,-1556.0,1028.0,-508.0,1483.0,212.0,2618.0,-1292.0,-1078.0,-5145.0,2628.0,-1536.0,-1958.0,-807.0,547.0,1458.0,697.0,-1463.0,521.0,-1040.0,3656.0,-2012.0,-421.0,-2512.0,-574.0,-3386.0,-287.0,-439.0,0
842.0,1541.0,-2437.0,2694.0,541.0,5544.0,-2004.0,2184.0,-3807.0,239.0,-6220.0,3536.0,3430.0,14527.0,-6286.0,4071.0,5391.0,2776.0,-334.0,-3117.0,-769.0,5511.0,-705.0,3668.0,-8025.0,6982.0,1946.0,9184.0,2431.0,10195.0,3002.0,-1281.0,0
1479.0,1205.0,-909.0,1595.0,518.0,2926.0,-1008.0,1190.0,-1708.0,377.0,-2799.0,1868.0,1753.0,7217.0,-2938.0,2063.0,2566.0,1424.0,34.0,-1273.0,-301.0,2894.0,-236.0,2049.0,-3762.0,3788.0,1226.0,5088.0,1382.0,5545.0,1841.0,866.0,0
149.0,-206.0,3118.0,-1703.0,248.0,-4486.0,2175.0,-1612.0,3863.0,389.0,6491.0,-3173.0,-2946.0,-13371.0,6416.0,-3794.0,-5141.0,-2326.0,989.0,3558.0,1238.0,-4402.0,1056.0,-2847.0,8466.0,-5594.0,-1219.0,-7109.0,-1748.0,-8653.0,-1601.0,1926.0,0
-664.0,-34.0,2033.0,-993.0,242.0,-2778.0,1545.0,-964.0,2410.0,249.0,4158.0,-2121.0,-1835.0,-8556.0,4189.0,-2484.0,-3243.0,-1416.0,747.0,2321.0,958.0,-2664.0,722.0,-1815.0,5651.0,-3517.0,-803.0,-4479.0,-1075.0,-5715.0,-856.0,-12.0,0
556.0,1392.0,-2119.0,2374.0,507.0,4790.0,-1720.0,1893.0,-3326.0,220.0,-5364.0,3025.0,2971.0,12517.0,-5405.0,3482.0,4657.0,2409.0,-227.0,-2605.0,-608.0,4789.0,-606.0,3183.0,-6899.0,6080.0,1678.0,7978.0,2104.0,8720.0,2640.0,-1402.0,0
1508.0,1389.0,-1594.0,2076.0,541.0,4030.0,-1532.0,1587.0,-2639.0,358.0,-4248.0,2616.0,2459.0,10367.0,-4407.0,2922.0,3776.0,1975.0,-128.0,-2001.0,-539.0,3996.0,-447.0,2752.0,-5707.0,5234.0,1573.0,6930.0,1834.0,7615.0,2329.0,445.0,0
394.0,-38.0,2633.0,-1345.0,253.0,-3650.0,1749.0,-1329.0,3170.0,403.0,5398.0,-2573.0,-2438.0,-10972.0,5315.0,-3125.0,-4248.0,-1948.0,841.0,2982.0,1058.0,-3576.0,899.0,-2303.0,6952.0,-4490.0,-943.0,-5664.0,-1392.0,-6986.0,-1219.0,1949.0,0
-704.0,-208.0,2639.0,-1481.0,190.0,-3833.0,1971.0,-1389.0,3215.0,280.0,5493.0,-2777.0,-2528.0,-11456.0,5509.0,-3315.0,-4316.0,-1985.0,857.0,2979.0,1198.0,-3711.0,908.0,-2506.0,7306.0,-4833.0,-1142.0,-6162.0,-1490.0,-7651.0,-1321.0,382.0,0
271.0,1184.0,-1539.0,1912.0,463.0,3812.0,-1265.0,1511.0,-2545.0,226.0,-4110.0,2355.0,2318.0,9724.0,-4145.0,2684.0,3655.0,1895.0,-113.0,-2009.0,-373.0,3806.0,-431.0,2487.0,-5242.0,4784.0,1310.0,6299.0,1699.0,6775.0,2187.0,-1398.0,0
1501.0,1542.0,-2072.0,2493.0,568.0,4988.0,-1891.0,1965.0,-3293.0,344.0,-5426.0,3242.0,3055.0,12903.0,-5577.0,3645.0,4784.0,2446.0,-242.0,-2641.0,-672.0,4934.0,-612.0,3357.0,-7198.0,6356.0,1828.0,8400.0,2244.0,9323.0,2769.0,95.0,0
684.0,198.0,2067.0,-823.0,321.0,-2475.0,1257.0,-845.0,2385.0,417.0,4024.0,-1767.0,-1682.0,-7842.0,3882.0,-2204.0,-3037.0,-1342.0,715.0,2279.0,852.0,-2420.0,722.0,-1520.0,5115.0,-3050.0,-551.0,-3787.0,-876.0,-4782.0,-662.0,2004.0,0
-621.0,-326.0,3117.0,-1800.0,193.0,-4575.0,2286.0,-1640.0,3864.0,317.0,6557.0,-3284.0,-2981.0,-13651.0,6507.0,-3890.0,-5110.0,-2349.0,977.0,3552.0,1336.0,-4456.0,1085.0,-2974.0,8645.0,-5777.0,-1354.0,-7427.0,-1810.0,-9075.0,-1654.0,896.0,0
29.0,938.0,-881.0,1362.0,415.0,2590.0,-741.0,1062.0,-1642.0,236.0,-2553.0,1517.0,1554.0,6308.0,-2618.0,1740.0,2403.0,1288.0,17.0,-1206.0,-136.0,2604.0,-197.0,1715.0,-3192.0,3246.0,915.0,4248.0,1153.0,4429.0,1622.0,-1248.0,0
1432.0,1640.0,-2447.0,2749.0,564.0,5627.0,-2153.0,2206.0,-3843.0,314.0,-6264.0,3668.0,3459.0,14696.0,-6400.0,4178.0,5461.0,2785.0,-357.0,-3070.0,-823.0,5548.0,-711.0,3784.0,-8236.0,7174.0,2020.0,9405.0,2477.0,10498.0,3052.0,-303.0,0
951.0,462.0,1344.0,-248.0,368.0,-1196.0,701.0,-363.0,1363.0,399.0,2368.0,-865.0,-885.0,-4225.0,2239.0,-1168.0,-1705.0,-706.0,534.0,1417.0,533.0,-1177.0,487.0,-671.0,2961.0,-1390.0,-141.0,-1660.0,-355.0,-2277.0,-87.0,1787.0,0
-535.0,-386.0,3386.0,-2031.0,181.0,-5117.0,2455.0,-1857.0,4219.0,306.0,7167.0,-3620.0,-3360.0,-15049.0,7135.0,-4275.0,-5712.0,-2662.0,1009.0,3853.0,1386.0,-4991.0,1145.0,-3323.0,9450.0,-6428.0,-1529.0,-8215.0,-2037.0,-9984.0,-1913.0,1192.0,0
-237.0,709.0,-135.0,733.0,373.0,1234.0,-175.0,551.0,-628.0,209.0,-889.0,589.0,663.0,2563.0,-900.0,682.0,951.0,577.0,188.0,-343.0,129.0,1269.0,26.0,789.0,-953.0,1506.0,440.0,2038.0,581.0,1848.0,978.0,-1048.0,0
1281.0,1713.0,-2620.0,2888.0,593.0,5958.0,-2257.0,2355.0,-4096.0,294.0,-6698.0,3878.0,3652.0,15636.0,-6787.0,4445.0,5795.0,2958.0,-382.0,-3323.0,-871.0,5896.0,-770.0,3964.0,-8733.0,7552.0,2092.0,9920.0,2606.0,11068.0,3189.0,-704.0,0
1183.0,733.0,604.0,371.0,415.0,190.0,96.0,164.0,316.0,418.0,625.0,57.0,-7.0,-353.0,509.0,-52.0,-279.0,0.0,338.0,493.0,252.0,205.0,249.0,231.0,713.0,368.0,320.0,638.0,229.0,376.0,575.0,1470.0,0
-342.0,-361.0,3522.0,-2077.0,189.0,-5257.0,2517.0,-1895.0,4366.0,375.0,7420.0,-3666.0,-3454.0,-15463.0,7380.0,-4378.0,-5885.0,-2724.0,1024.0,3991.0,1444.0,-5114.0,1212.0,-3392.0,9744.0,-6591.0,-1542.0,-8426.0,-2083.0,-10183.0,-1945.0,1424.0,0
-437.0,499.0,652.0,145.0,342.0,-150.0,456.0,47.0,437.0,253.0,906.0,-295.0,-198.0,-1276.0,918.0,-395.0,-482.0,-89.0,380.0,577.0,454.0,-50.0,327.0,-78.0,1388.0,-240.0,20.0,-225.0,31.0,-750.0,365.0,-880.0,0
1063.0,1713.0,-2621.0,2872.0,584.0,5936.0,-2198.0,2348.0,-4109.0,289.0,-6673.0,3846.0,3664.0,15584.0,-6747.0,4420.0,5801.0,2966.0,-385.0,-3343.0,-827.0,5914.0,-734.0,3983.0,-8670.0,7498.0,2082.0,9866.0,2618.0,11005.0,3202.0,-1090.0,0
1338.0,1031.0,-143.0,991.0,477.0,1609.0,-451.0,708.0,-744.0,396.0,-1116.0,1004.0,922.0,3507.0,-1229.0,1045.0,1186.0,738.0,189.0,-418.0,11.0,1601.0,18.0,1198.0,-1564.0,2097.0,789.0,2928.0,833.0,3056.0,1233.0,1195.0,0
-154.0,-267.0,3466.0,-1995.0,214.0,-5038.0,2439.0,-1802.0,4243.0,374.0,7186.0,-3525.0,-3288.0,-14934.0,7171.0,-4197.0,-5690.0,-2603.0,1026.0,3873.0,1401.0,-4928.0,1179.0,-3204.0,9435.0,-6344.0,-1432.0,-8057.0,-1970.0,-9748.0,-1854.0,1674.0,0
-623.0,246.0,1393.0,-472.0,280.0,-1486.0,1031.0,-465.0,1451.0,248.0,2592.0,-1227.0,-1039.0,-5063.0,2639.0,-1452.0,-1880.0,-771.0,549.0,1444.0,729.0,-1416.0,538.0,-959.0,3630.0,-1952.0,-407.0,-2432.0,-526.0,-3328.0,-258.0,-529.0,0
823.0,1610.0,-2430.0,2689.0,565.0,5582.0,-2027.0,2214.0,-3825.0,276.0,-6248.0,3587.0,3457.0,14565.0,-6294.0,4122.0,5449.0,2803.0,-342.0,-3105.0,-731.0,5517.0,-692.0,3734.0,-8046.0,7004.0,1935.0,9223.0,2450.0,10195.0,3019.0,-1357.0,0
1447.0,1256.0,-881.0,1550.0,528.0,2933.0,-1022.0,1195.0,-1714.0,393.0,-2780.0,1890.0,1772.0,7150.0,-2898.0,2075.0,2581.0,1420.0,7.0,-1242.0,-239.0,2867.0,-205.0,2067.0,-3726.0,3743.0,1200.0,5058.0,1364.0,5467.0,1824.0,777.0,0
103.0,-172.0,3126.0,-1757.0,233.0,-4490.0,2153.0,-1643.0,3842.0,380.0,6503.0,-3145.0,-2954.0,-13401.0,6446.0,-3778.0,-5137.0,-2349.0,917.0,3555.0,1273.0,-4426.0,1077.0,-2855.0,8467.0,-5672.0,-1257.0,-7162.0,-1772.0,-8692.0,-1619.0,1823.0,0
-675.0,9.0,2054.0,-1018.0,252.0,-2740.0,1530.0,-956.0,2395.0,271.0,4153.0,-2041.0,-1827.0,-8450.0,4159.0,-2438.0,-3173.0,-1404.0,687.0,2285.0,961.0,-2646.0,765.0,-1775.0,5619.0,-3527.0,-809.0,-4449.0,-1053.0,-5652.0,-814.0,-58.0,0
549.0,1434.0,-2085.0,2377.0,544.0,4838.0,-1697.0,1926.0,-3342.0,241.0,-5377.0,3094.0,2994.0,12602.0,-5404.0,3539.0,4721.0,2443.0,-261.0,-2645.0,-592.0,4817.0,-544.0,3230.0,-6892.0,6071.0,1676.0,8022.0,2146.0,8803.0,2700.0,-1340.0,0
1503.0,1442.0,-1541.0,2083.0,578.0,4063.0,-1480.0,1625.0,-2618.0,367.0,-4219.0,2664.0,2495.0,10339.0,-4319.0,2969.0,3785.0,1995.0,-119.0,-1975.0,-471.0,3996.0,-377.0,2794.0,-5609.0,5163.0,1563.0,6937.0,1866.0,7632.0,2383.0,517.0,0
364.0,0.0,2665.0,-1347.0,289.0,-3619.0,1774.0,-1301.0,3186.0,406.0,5444.0,-2536.0,-2400.0,-11015.0,5376.0,-3107.0,-4249.0,-1913.0,860.0,3029.0,1092.0,-3576.0,960.0,-2264.0,7044.0,-4584.0,-947.0,-5665.0,-1362.0,-6977.0,-1174.0,1943.0,0
-731.0,-165.0,2626.0,-1452.0,218.0,-3779.0,1935.0,-1359.0,3174.0,283.0,5478.0,-2736.0,-2467.0,-11385.0,5493.0,-3254.0,-4281.0,-1930.0,864.0,2985.0,1180.0,-3662.0,965.0,-2462.0,7305.0,-4861.0,-1107.0,-6114.0,-1451.0,-7578.0,-1269.0,312.0,0
242.0,1241.0,-1569.0,1924.0,484.0,3838.0,-1297.0,1544.0,-2590.0,226.0,-4151.0,2392.0,2374.0,9814.0,-4158.0,2735.0,3692.0,1946.0,-109.0,-2011.0,-384.0,3856.0,-385.0,2535.0,-5280.0,4785.0,1351.0,6351.0,1742.0,6861.0,2241.0,-1446.0,0
1456.0,1578.0,-2072.0,2458.0,573.0,4957.0,-1896.0,1954.0,-3323.0,325.0,-5430.0,3244.0,3064.0,12887.0,-5505.0,3654.0,4736.0,2476.0,-230.0,-2625.0,-684.0,4922.0,-578.0,3357.0,-7178.0,6317.0,1836.0,8388.0,2247.0,9308.0,2787.0,78.0,0
638.0,224.0,2056.0,-838.0,320.0,-2530.0,1253.0,-887.0,2359.0,393.0,4029.0,-1783.0,-1711.0,-7901.0,3976.0,-2217.0,-3116.0,-1352.0,733.0,2281.0,830.0,-2459.0,738.0,-1539.0,5134.0,-3116.0,-577.0,-3828.0,-899.0,-4815.0,-675.0,1936.0,0
-674.0,-283.0,3090.0,-1786.0,190.0,-4568.0,2259.0,-1653.0,3836.0,298.0,6504.0,-3257.0,-2988.0,-13591.0,6536.0,-3861.0,-5148.0,-2338.0,984.0,3514.0,1313.0,-4433.0,1095.0,-2976.0,8601.0,-5801.0,-1366.0,-7386.0,-1789.0,-9024.0,-1646.0,816.0,0
-10.0,990.0,-902.0,1397.0,428.0,2634.0,-757.0,1092.0,-1652.0,204.0,-2615.0,1559.0,1603.0,6444.0,-2582.0,1804.0,2423.0,1329.0,60.0,-1223.0,-136.0,2676.0,-176.0,1736.0,-3251.0,3279.0,929.0,4356.0,1207.0,4549.0,1659.0,-1330.0,0
1388.0,1704.0,-2428.0,2787.0,595.0,5633.0,-2126.0,2250.0,-3801.0,290.0,-6247.0,3675.0,3505.0,14729.0,-6302.0,4194.0,5446.0,2812.0,-307.0,-3064.0,-784.0,5588.0,-677.0,3788.0,-8229.0,7157.0,2032.0,9449.0,2521.0,10553.0,3072.0,-368.0,0
876.0,481.0,1360.0,-253.0,372.0,-1227.0,701.0,-356.0,1389.0,370.0,2391.0,-897.0,-878.0,-4267.0,2333.0,-1168.0,-1761.0,-715.0,539.0,1420.0,589.0,-1199.0,497.0,-686.0,2978.0,-1456.0,-153.0,-1679.0,-348.0,-2302.0,-100.0,1715.0,0
-590.0,-366.0,3377.0,-2030.0,181.0,-5123.0,2432.0,-1834.0,4222.0,292.0,7140.0,-3606.0,-3331.0,-14966.0,7180.0,-4263.0,-5699.0,-2654.0,1003.0,3824.0,1427.0,-4986.0,1152.0,-3304.0,9397.0,-6432.0,-1540.0,-8198.0,-2005.0,-9942.0,-1922.0,1136.0,0
-246.0,745.0,-137.0,771.0,404.0,1250.0,-176.0,576.0,-631.0,218.0,-936.0,632.0,738.0,2715.0,-879.0,725.0,1016.0,622.0,201.0,-360.0,158.0,1323.0,49.0,860.0,-1023.0,1547.0,469.0,2100.0,657.0,1932.0,1018.0,-1096.0,0
1286.0,1749.0,-2611.0,2900.0,615.0,5946.0,-2251.0,2344.0,-4080.0,292.0,-6713.0,3877.0,3704.0,15666.0,-6767.0,4452.0,5821.0,2977.0,-378.0,-3299.0,-854.0,5897.0,-759.0,4012.0,-8756.0,7534.0,2108.0,9923.0,2640.0,11080.0,3228.0,-693.0,0
1143.0,758.0,616.0,357.0,438.0,169.0,106.0,145.0,338.0,390.0,624.0,30.0,1.0,-409.0,561.0,-89.0,-284.0,14.0,352.0,517.0,273.0,166.0,247.0,250.0,728.0,288.0,323.0,579.0,218.0,338.0,564.0,1561.0,0
-389.0,-372.0,3484.0,-2116.0,181.0,-5277.0,2486.0,-1938.0,4343.0,330.0,7333.0,-3711.0,-3445.0,-15462.0,7362.0,-4392.0,-5894.0,-2744.0,1011.0,3958.0,1408.0,-5138.0,1166.0,-3394.0,9695.0,-6672.0,-1550.0,-8461.0,-2093.0,-10209.0,-1997.0,1486.0,0
-454.0,461.0,572.0,118.0,292.0,-183.0,388.0,2.0,371.0,202.0,781.0,-335.0,-177.0,-1198.0,820.0,-386.0,-475.0,-133.0,340.0,506.0,384.0,-84.0,249.0,-97.0,1281.0,-274.0,-1.0,-211.0,24.0,-729.0,329.0,-849.0,0
1052.0,1693.0,-2671.0,2847.0,557.0,5890.0,-2235.0,2315.0,-4121.0,245.0,-6732.0,3837.0,3670.0,15608.0,-6784.0,4402.0,5784.0,2927.0,-412.0,-3347.0,-879.0,5837.0,-783.0,3939.0,-8715.0,7451.0,2071.0,9847.0,2607.0,10978.0,3159.0,-1048.0,0
1301.0,1006.0,-157.0,958.0,468.0,1552.0,-467.0,682.0,-708.0,362.0,-1100.0,985.0,882.0,3431.0,-1225.0,998.0,1138.0,676.0,175.0,-367.0,-10.0,1505.0,-4.0,1143.0,-1521.0,2029.0,789.0,2860.0,826.0,2953.0,1178.0,1280.0,0
-184.0,-312.0,3406.0,-2018.0,194.0,-5086.0,2399.0,-1821.0,4239.0,351.0,7172.0,-3535.0,-3329.0,-14936.0,7131.0,-4246.0,-5716.0,-2665.0,1015.0,3902.0,1375.0,-4994.0,1148.0,-3247.0,9434.0,-6399.0,-1455.0,-8109.0,-1975.0,-9808.0,-1892.0,1806.0,0
-619.0,243.0,1337.0,-472.0,260.0,-1510.0,978.0,-467.0,1410.0,230.0,2555.0,-1204.0,-1020.0,-4942.0,2552.0,-1468.0,-1865.0,-797.0,532.0,1441.0,696.0,-1411.0,517.0,-958.0,3569.0,-1959.0,-404.0,-2399.0,-519.0,-3292.0,-256.0,-438.0,0
812.0,1630.0,-2451.0,2689.0,552.0,5555.0,-2038.0,2203.0,-3850.0,236.0,-6243.0,3595.0,3471.0,14616.0,-6311.0,4117.0,5459.0,2788.0,-332.0,-3097.0,-759.0,5527.0,-687.0,3714.0,-8044.0,7003.0,1953.0,9238.0,2475.0,10239.0,3031.0,-1265.0,0
1437.0,1257.0,-869.0,1534.0,492.0,2867.0,-1004.0,1167.0,-1709.0,356.0,-2740.0,1858.0,1734.0,7080.0,-2845.0,2042.0,2529.0,1377.0,41.0,-1209.0,-284.0,2816.0,-192.0,2007.0,-3659.0,3692.0,1199.0,5010.0,1387.0,5423.0,1807.0,862.0,0
91.0,-165.0,3141.0,-1782.0,206.0,-4546.0,2176.0,-1640.0,3852.0,369.0,6538.0,-3176.0,-2976.0,-13426.0,6493.0,-3789.0,-5156.0,-2373.0,974.0,3584.0,1245.0,-4458.0,1090.0,-2890.0,8537.0,-5684.0,-1244.0,-7155.0,-1731.0,-8708.0,-1626.0,1866.0,0
-698.0,8.0,2023.0,-1025.0,242.0,-2730.0,1540.0,-927.0,2393.0,260.0,4156.0,-2059.0,-1793.0,-8352.0,4147.0,-2390.0,-3139.0,-1396.0,726.0,2283.0,947.0,-2616.0,758.0,-1764.0,5609.0,-3480.0,-766.0,-4378.0,-1001.0,-5588.0,-816.0,-69.0,0
557.0,1422.0,-2103.0,2355.0,527.0,4854.0,-1690.0,1957.0,-3308.0,246.0,-5362.0,3073.0,3017.0,12700.0,-5419.0,3586.0,4738.0,2440.0,-238.0,-2635.0,-612.0,4845.0,-573.0,3243.0,-6885.0,6123.0,1731.0,8073.0,2197.0,8853.0,2681.0,-1390.0,0
1497.0,1396.0,-1554.0,2033.0,556.0,4017.0,-1450.0,1646.0,-2566.0,342.0,-4171.0,2602.0,2461.0,10290.0,-4288.0,2946.0,3721.0,1952.0,-133.0,-1965.0,-498.0,3975.0,-404.0,2759.0,-5543.0,5147.0,1586.0,6887.0,1880.0,7580.0,2327.0,486.0,0
359.0,-51.0,2641.0,-1377.0,271.0,-3680.0,1788.0,-1285.0,3232.0,370.0,5483.0,-2575.0,-2421.0,-11053.0,5409.0,-3134.0,-4313.0,-1956.0,844.0,3034.0,1079.0,-3597.0,927.0,-2326.0,7092.0,-4589.0,-940.0,-5730.0,-1359.0,-7044.0,-1226.0,1944.0,0
-729.0,-216.0,2580.0,-1465.0,205.0,-3789.0,1931.0,-1336.0,3181.0,261.0,5464.0,-2750.0,-2459.0,-11278.0,5473.0,-3269.0,-4306.0,-1968.0,834.0,2962.0,1154.0,-3658.0,898.0,-2481.0,7288.0,-4805.0,-1119.0,-6096.0,-1450.0,-7552.0,-1301.0,311.0,0
252.0,1192.0,-1603.0,1932.0,482.0,3860.0,-1300.0,1558.0,-2582.0,226.0,-4156.0,2393.0,2382.0,9922.0,-4186.0,2746.0,3679.0,1913.0,-132.0,-2030.0,-398.0,3876.0,-443.0,2525.0,-5288.0,4838.0,1367.0,6392.0,1753.0,6907.0,2224.0,-1453.0,0
1468.0,1568.0,-2081.0,2470.0,579.0,4970.0,-1866.0,1964.0,-3253.0,357.0,-5356.0,3229.0,3058.0,12882.0,-5498.0,3666.0,4707.0,2434.0,-232.0,-2601.0,-659.0,4924.0,-586.0,3323.0,-7116.0,6318.0,1866.0,8388.0,2266.0,9305.0,2771.0,80.0,0
656.0,230.0,2059.0,-838.0,330.0,-2503.0,1299.0,-861.0,2435.0,445.0,4104.0,-1781.0,-1706.0,-7927.0,4009.0,-2217.0,-3139.0,-1386.0,739.0,2327.0,869.0,-2461.0,751.0,-1579.0,5218.0,-3129.0,-537.0,-3846.0,-888.0,-4849.0,-669.0,1968.0,0
-644.0,-269.0,3080.0,-1771.0,198.0,-4525.0,2268.0,-1630.0,3843.0,332.0,6513.0,-3253.0,-2982.0,-13519.0,6515.0,-3853.0,-5119.0,-2373.0,959.0,3519.0,1311.0,-4420.0,1080.0,-2992.0,8582.0,-5789.0,-1340.0,-7352.0,-1770.0,-8991.0,-1622.0,852.0,0
23.0,1002.0,-898.0,1404.0,449.0,2690.0,-754.0,1101.0,-1658.0,227.0,-2615.0,1578.0,1605.0,6529.0,-2649.0,1811.0,2457.0,1300.0,38.0,-1248.0,-149.0,2704.0,-191.0,1735.0,-3324.0,3293.0,944.0,4415.0,1236.0,4587.0,1689.0,-1242.0,0
1422.0,1679.0,-2406.0,2767.0,612.0,5637.0,-2120.0,2209.0,-3797.0,326.0,-6212.0,3665.0,3465.0,14678.0,-6336.0,4179.0,5445.0,2767.0,-307.0,-3062.0,-794.0,5565.0,-701.0,3771.0,-8219.0,7114.0,2028.0,9448.0,2510.0,10500.0,3087.0,-270.0,0
933.0,463.0,1407.0,-250.0,377.0,-1223.0,720.0,-390.0,1417.0,408.0,2451.0,-923.0,-887.0,-4356.0,2322.0,-1188.0,-1761.0,-739.0,576.0,1454.0,589.0,-1198.0,488.0,-712.0,3027.0,-1499.0,-131.0,-1698.0,-349.0,-2360.0,-65.0,1800.0,0
-514.0,-361.0,3426.0,-1986.0,198.0,-5022.0,2480.0,-1810.0,4240.0,336.0,7183.0,-3574.0,-3293.0,-14944.0,7134.0,-4214.0,-5650.0,-2621.0,1054.0,3873.0,1446.0,-4907.0,1165.0,-3296.0,9392.0,-6416.0,-1460.0,-8119.0,-1979.0,-9881.0,-1831.0,1188.0,0
-183.0,759.0,-112.0,826.0,417.0,1368.0,-160.0,635.0,-624.0,261.0,-908.0,691.0,795.0,2818.0,-930.0,791.0,1080.0,664.0,250.0,-331.0,189.0,1407.0,61.0,888.0,-1068.0,1589.0,542.0,2227.0,679.0,2050.0,1096.0,-1040.0,0
1334.0,1755.0,-2568.0,2928.0,653.0,6021.0,-2227.0,2390.0,-4030.0,324.0,-6616.0,3922.0,3754.0,15682.0,-6723.0,4485.0,5849.0,3001.0,-317.0,-3258.0,-809.0,5948.0,-712.0,4021.0,-8739.0,7549.0,2180.0,10004.0,2683.0,11126.0,3281.0,-575.0,0
1181.0,753.0,652.0,362.0,444.0,184.0,143.0,171.0,398.0,404.0,739.0,47.0,11.0,-490.0,636.0,-87.0,-308.0,4.0,393.0,582.0,309.0,172.0,284.0,231.0,764.0,254.0,362.0,602.0,231.0,297.0,611.0,1642.0,0
-370.0,-368.0,3520.0,-2074.0,182.0,-5250.0,2518.0,-1879.0,4381.0,338.0,7397.0,-3703.0,-3418.0,-15458.0,7414.0,-4383.0,-5886.0,-2717.0,1053.0,3989.0,1441.0,-5123.0,1191.0,-3394.0,9669.0,-6659.0,-1510.0,-8404.0,-2067.0,-10197.0,-1938.0,1495.0,0
-434.0,470.0,604.0,148.0,333.0,-87.0,412.0,68.0,394.0,213.0,798.0,-310.0,-152.0,-1107.0,836.0,-371.0,-422.0,-70.0,412.0,535.0,427.0,-15.0,279.0,-56.0,1200.0,-208.0,51.0,-102.0,77.0,-649.0,406.0,-860.0,0
1085.0,1680.0,-2639.0,2839.0,593.0,5967.0,-2224.0,2354.0,-4106.0,255.0,-6713.0,3819.0,3675.0,15609.0,-6750.0,4400.0,5796.0,2957.0,-345.0,-3313.0,-830.0,5907.0,-747.0,3980.0,-8754.0,7490.0,2104.0,9889.0,2641.0,11001.0,3218.0,-1056.0,0
1337.0,982.0,-124.0,919.0,465.0,1555.0,-446.0,684.0,-697.0,384.0,-1046.0,937.0,862.0,3319.0,-1141.0,966.0,1084.0,686.0,190.0,-334.0,20.0,1520.0,21.0,1140.0,-1544.0,2009.0,797.0,2817.0,814.0,2906.0,1189.0,1218.0,0
-146.0,-304.0,3443.0,-2039.0,193.0,-5054.0,2419.0,-1829.0,4239.0,353.0,7213.0,-3563.0,-3312.0,-14976.0,7178.0,-4257.0,-5728.0,-2628.0,1007.0,3906.0,1398.0,-4973.0,1166.0,-3235.0,9381.0,-6382.0,-1406.0,-8110.0,-1987.0,-9803.0,-1879.0,1676.0,0
-587.0,231.0,1338.0,-469.0,268.0,-1437.0,974.0,-460.0,1403.0,229.0,2537.0,-1213.0,-995.0,-4875.0,2535.0,-1439.0,-1831.0,-748.0,541.0,1422.0,703.0,-1368.0,513.0,-927.0,3466.0,-1899.0,-371.0,-2355.0,-491.0,-3247.0,-231.0,-541.0,0
812.0,1572.0,-2479.0,2656.0,527.0,5570.0,-2068.0,2194.0,-3875.0,207.0,-6272.0,3557.0,3456.0,14612.0,-6351.0,4074.0,5438.0,2797.0,-352.0,-3133.0,-783.0,5530.0,-725.0,3715.0,-8148.0,7001.0,1941.0,9229.0,2467.0,10205.0,3012.0,-1324.0,0
1408.0,1192.0,-868.0,1486.0,484.0,2832.0,-1009.0,1149.0,-1699.0,316.0,-2697.0,1810.0,1695.0,6951.0,-2853.0,1960.0,2465.0,1373.0,17.0,-1224.0,-268.0,2792.0,-210.0,1985.0,-3671.0,3642.0,1192.0,4925.0,1360.0,5327.0,1770.0,875.0,0
70.0,-230.0,3130.0,-1808.0,199.0,-4549.0,2163.0,-1648.0,3837.0,333.0,6543.0,-3208.0,-3017.0,-13547.0,6441.0,-3869.0,-5198.0,-2387.0,941.0,3566.0,1251.0,-4490.0,1052.0,-2923.0,8515.0,-5711.0,-1247.0,-7227.0,-1764.0,-8794.0,-1666.0,1891.0,0
-703.0,-32.0,1983.0,-1031.0,209.0,-2704.0,1474.0,-957.0,2319.0,215.0,4067.0,-2048.0,-1825.0,-8362.0,4043.0,-2435.0,-3141.0,-1421.0,685.0,2245.0,915.0,-2620.0,696.0,-1802.0,5499.0,-3464.0,-787.0,-4386.0,-1043.0,-5585.0,-843.0,-88.0,0
533.0,1389.0,-2143.0,2327.0,485.0,4863.0,-1771.0,1899.0,-3398.0,180.0,-5452.0,3082.0,2969.0,12646.0,-5527.0,3536.0,4727.0,2381.0,-272.0,-2691.0,-647.0,4813.0,-629.0,3194.0,-6980.0,6109.0,1684.0,8042.0,2135.0,8814.0,2645.0,-1403.0,0
1460.0,1367.0,-1531.0,2000.0,509.0,3968.0,-1511.0,1547.0,-2608.0,301.0,-4193.0,2571.0,2402.0,10128.0,-4336.0,2880.0,3670.0,1877.0,-133.0,-1996.0,-530.0,3888.0,-454.0,2687.0,-5544.0,5065.0,1521.0,6781.0,1800.0,7452.0,2272.0,513.0,0
337.0,-68.0,2675.0,-1404.0,249.0,-3719.0,1770.0,-1368.0,3218.0,356.0,5473.0,-2615.0,-2454.0,-11166.0,5397.0,-3156.0,-4347.0,-2009.0,837.0,2999.0,1052.0,-3665.0,876.0,-2367.0,7140.0,-4649.0,-981.0,-5808.0,-1427.0,-7124.0,-1273.0,1939.0,0
-729.0,-220.0,2587.0,-1492.0,193.0,-3756.0,1919.0,-1383.0,3148.0,242.0,5392.0,-2754.0,-2467.0,-11263.0,5406.0,-3224.0,-4273.0,-1978.0,817.0,2900.0,1130.0,-3648.0,862.0,-2472.0,7283.0,-4809.0,-1128.0,-6080.0,-1480.0,-7535.0,-1326.0,313.0,0
266.0,1188.0,-1602.0,1892.0,474.0,3877.0,-1321.0,1511.0,-2627.0,195.0,-4229.0,2390.0,2387.0,9929.0,-4254.0,2791.0,3706.0,1907.0,-162.0,-2101.0,-415.0,3894.0,-459.0,2539.0,-5307.0,4831.0,1341.0,6417.0,1700.0,6926.0,2203.0,-1428.0,0
1460.0,1534.0,-2060.0,2414.0,566.0,4912.0,-1889.0,1885.0,-3299.0,305.0,-5383.0,3184.0,3021.0,12737.0,-5499.0,3644.0,4669.0,2386.0,-289.0,-2660.0,-687.0,4862.0,-623.0,3286.0,-7068.0,6257.0,1811.0,8310.0,2183.0,9224.0,2717.0,92.0,0
608.0,161.0,2059.0,-898.0,304.0,-2592.0,1261.0,-966.0,2372.0,366.0,4086.0,-1877.0,-1775.0,-8104.0,3998.0,-2281.0,-3196.0,-1446.0,662.0,2258.0,809.0,-2549.0,669.0,-1649.0,5283.0,-3217.0,-605.0,-3951.0,-970.0,-4967.0,-758.0,1897.0,0
-707.0,-319.0,3030.0,-1813.0,177.0,-4566.0,2223.0,-1705.0,3745.0,257.0,6436.0,-3293.0,-3014.0,-13533.0,6441.0,-3900.0,-5124.0,-2387.0,903.0,3429.0,1280.0,-4446.0,1007.0,-3025.0,8597.0,-5807.0,-1355.0,-7367.0,-1824.0,-9026.0,-1705.0,714.0,0
-17.0,986.0,-977.0,1369.0,421.0,2666.0,-792.0,1058.0,-1748.0,174.0,-2714.0,1577.0,1598.0,6586.0,-2710.0,1790.0,2473.0,1312.0,-29.0,-1329.0,-155.0,2707.0,-266.0,1729.0,-3303.0,3319.0,964.0,4422.0,1209.0,4593.0,1631.0,-1383.0,0
1381.0,1663.0,-2476.0,2693.0,563.0,5573.0,-2139.0,2175.0,-3840.0,280.0,-6248.0,3625.0,3434.0,14615.0,-6317.0,4115.0,5386.0,2737.0,-376.0,-3116.0,-820.0,5534.0,-761.0,3733.0,-8135.0,7077.0,2036.0,9360.0,2478.0,10401.0,3012.0,-399.0,0
893.0,443.0,1340.0,-327.0,332.0,-1296.0,725.0,-433.0,1405.0,372.0,2452.0,-967.0,-940.0,-4485.0,2390.0,-1277.0,-1839.0,-775.0,507.0,1424.0,555.0,-1259.0,454.0,-762.0,3145.0,-1571.0,-144.0,-1824.0,-376.0,-2506.0,-148.0,1676.0,0
-554.0,-389.0,3338.0,-2034.0,155.0,-5087.0,2448.0,-1874.0,4163.0,278.0,7120.0,-3605.0,-3318.0,-14948.0,7133.0,-4272.0,-5669.0,-2626.0,975.0,3808.0,1391.0,-4952.0,1109.0,-3327.0,9406.0,-6438.0,-1495.0,-8188.0,-1992.0,-9968.0,-1911.0,1058.0,0
-227.0,733.0,-219.0,788.0,375.0,1324.0,-187.0,566.0,-739.0,195.0,-1012.0,674.0,767.0,2853.0,-986.0,763.0,1087.0,656.0,166.0,-431.0,128.0,1369.0,-18.0,862.0,-1115.0,1620.0,517.0,2216.0,671.0,2013.0,1037.0,-1184.0,0
1277.0,1721.0,-2647.0,2883.0,620.0,5945.0,-2235.0,2335.0,-4112.0,280.0,-6677.0,3896.0,3681.0,15610.0,-6744.0,4433.0,5811.0,2960.0,-392.0,-3321.0,-854.0,5877.0,-797.0,3975.0,-8741.0,7546.0,2134.0,9928.0,2655.0,11058.0,3201.0,-744.0,0
1126.0,737.0,639.0,323.0,461.0,110.0,168.0,130.0,395.0,374.0,763.0,36.0,-43.0,-604.0,650.0,-130.0,-336.0,-29.0,368.0,578.0,299.0,114.0,248.0,191.0,812.0,236.0,301.0,507.0,226.0,220.0,526.0,1546.0,0
-409.0,-368.0,3488.0,-2111.0,207.0,-5276.0,2520.0,-1932.0,4349.0,295.0,7392.0,-3694.0,-3445.0,-15451.0,7365.0,-4411.0,-5856.0,-2733.0,1024.0,3978.0,1429.0,-5154.0,1153.0,-3414.0,9667.0,-6640.0,-1558.0,-8435.0,-2060.0,-10202.0,-1973.0,1418.0,0
-454.0,478.0,547.0,153.0,331.0,-91.0,370.0,23.0,329.0,169.0,731.0,-279.0,-138.0,-1011.0,735.0,-375.0,-368.0,-70.0,351.0,480.0,403.0,-24.0,216.0,-81.0,1133.0,-164.0,28.0,-77.0,89.0,-618.0,394.0,-912.0,0
1067.0,1687.0,-2665.0,2873.0,596.0,5939.0,-2237.0,2301.0,-4118.0,227.0,-6721.0,3854.0,3688.0,15641.0,-6801.0,4392.0,5832.0,2969.0,-383.0,-3353.0,-841.0,5885.0,-804.0,3940.0,-8770.0,7501.0,2071.0,9885.0,2659.0,10979.0,3196.0,-1065.0,0
1296.0,969.0,-138.0,938.0,482.0,1485.0,-455.0,600.0,-669.0,335.0,-1019.0,934.0,838.0,3255.0,-1142.0,927.0,1098.0,671.0,196.0,-369.0,0.0,1468.0,-22.0,1082.0,-1488.0,1952.0,739.0,2750.0,806.0,2818.0,1165.0,1215.0,0
-193.0,-335.0,3394.0,-2009.0,215.0,-5123.0,2395.0,-1906.0,4254.0,305.0,7197.0,-3560.0,-3340.0,-15005.0,7167.0,-4281.0,-5710.0,-2624.0,1007.0,3882.0,1377.0,-5012.0,1117.0,-3296.0,9379.0,-6438.0,-1470.0,-8142.0,-1991.0,-9840.0,-1884.0,1703.0,0
-611.0,205.0,1285.0,-428.0,283.0,-1470.0,926.0,-511.0,1379.0,182.0,2456.0,-1172.0,-995.0,-4792.0,2485.0,-1425.0,-1782.0,-725.0,501.0,1387.0,674.0,-1358.0,458.0,-946.0,3380.0,-1895.0,-401.0,-2305.0,-480.0,-3185.0,-227.0,-501.0,0
809.0,1573.0,-2497.0,2702.0,555.0,5530.0,-2089.0,2148.0,-3871.0,177.0,-6297.0,3599.0,3447.0,14665.0,-6366.0,4112.0,5470.0,2803.0,-377.0,-3140.0,-787.0,5530.0,-753.0,3694.0,-8180.0,6996.0,1927.0,9266.0,2477.0,10247.0,3021.0,-1296.0,0
1395.0,1193.0,-865.0,1510.0,514.0,2759.0,-1010.0,1102.0,-1671.0,288.0,-2664.0,1806.0,1656.0,6894.0,-2804.0,1966.0,2447.0,1346.0,0.0,-1211.0,-272.0,2759.0,-244.0,1938.0,-3642.0,3580.0,1161.0,4890.0,1344.0,5279.0,1770.0,847.0,0
57.0,-216.0,3146.0,-1767.0,225.0,-4594.0,2154.0,-1674.0,3864.0,293.0,6562.0,-3204.0,-3022.0,-13542.0,6492.0,-3827.0,-5200.0,-2386.0,950.0,3559.0,1275.0,-4480.0,1049.0,-2935.0,8532.0,-5770.0,-1257.0,-7253.0,-1770.0,-8795.0,-1638.0,1832.0,0
-708.0,-23.0,1995.0,-981.0,219.0,-2688.0,1461.0,-951.0,2321.0,186.0,4043.0,-2032.0,-1819.0,-8245.0,4040.0,-2373.0,-3107.0,-1388.0,687.0,2201.0,937.0,-2569.0,708.0,-1762.0,5445.0,-3452.0,-771.0,-4326.0,-1032.0,-5517.0,-796.0,-132.0,0
545.0,1413.0,-2132.0,2384.0,517.0,4885.0,-1766.0,1933.0,-3361.0,179.0,-5432.0,3084.0,3001.0,12745.0,-5514.0,3577.0,4763.0,2443.0,-279.0,-2708.0,-643.0,4868.0,-593.0,3225.0,-7032.0,6126.0,1693.0,8109.0,2164.0,8881.0,2696.0,-1386.0,0
1486.0,1386.0,-1505.0,2021.0,546.0,3953.0,-1484.0,1590.0,-2545.0,307.0,-4118.0,2565.0,2401.0,10081.0,-4280.0,2883.0,3666.0,1922.0,-145.0,-1997.0,-510.0,3902.0,-401.0,2677.0,-5530.0,5035.0,1513.0,6770.0,1837.0,7428.0,2289.0,536.0,0
356.0,-43.0,2709.0,-1410.0,252.0,-3722.0,1777.0,-1325.0,3248.0,338.0,5520.0,-2612.0,-2493.0,-11241.0,5439.0,-3151.0,-4354.0,-1969.0,825.0,3010.0,1066.0,-3675.0,929.0,-2382.0,7139.0,-4679.0,-995.0,-5822.0,-1382.0,-7163.0,-1271.0,1923.0,0
-715.0,-166.0,2604.0,-1466.0,167.0,-3740.0,1900.0,-1341.0,3126.0,216.0,5379.0,-2720.0,-2467.0,-11215.0,5398.0,-3196.0,-4238.0,-1924.0,807.0,2898.0,1158.0,-3624.0,910.0,-2452.0,7197.0,-4787.0,-1142.0,-6030.0,-1444.0,-7488.0,-1314.0,255.0,0
286.0,1235.0,-1593.0,1942.0,443.0,3894.0,-1332.0,1564.0,-2659.0,180.0,-4234.0,2430.0,2396.0,10009.0,-4261.0,2801.0,3744.0,1956.0,-154.0,-2105.0,-386.0,3899.0,-442.0,2567.0,-5383.0,4871.0,1320.0,6474.0,1740.0,6984.0,2207.0,-1461.0,0
1468.0,1553.0,-2040.0,2413.0,545.0,4873.0,-1874.0,1944.0,-3292.0,293.0,-5341.0,3184.0,3011.0,12686.0,-5457.0,3603.0,4666.0,2405.0,-260.0,-2643.0,-664.0,4821.0,-600.0,3303.0,-7053.0,6235.0,1780.0,8274.0,2197.0,9194.0,2708.0,92.0,0
642.0,207.0,2120.0,-892.0,304.0,-2637.0,1313.0,-881.0,2438.0,360.0,4149.0,-1848.0,-1756.0,-8175.0,4070.0,-2302.0,-3199.0,-1421.0,715.0,2298.0,850.0,-2582.0,738.0,-1599.0,5341.0,-3233.0,-625.0,-3990.0,-939.0,-4991.0,-754.0,1929.0,0
-627.0,-264.0,3094.0,-1771.0,205.0,-4529.0,2291.0,-1582.0,3818.0,276.0,6455.0,-3224.0,-2938.0,-13453.0,6485.0,-3828.0,-5072.0,-2327.0,972.0,3482.0,1321.0,-4409.0,1094.0,-2924.0,8623.0,-5737.0,-1341.0,-7305.0,-1743.0,-8927.0,-1635.0,775.0,0
58.0,1008.0,-927.0,1419.0,447.0,2712.0,-762.0,1157.0,-1709.0,203.0,-2720.0,1630.0,1663.0,6690.0,-2711.0,1856.0,2527.0,1367.0,27.0,-1288.0,-149.0,2752.0,-194.0,1803.0,-3325.0,3373.0,973.0,4503.0,1275.0,4718.0,1675.0,-1293.0,0
1426.0,1645.0,-2408.0,2729.0,587.0,5561.0,-2119.0,2230.0,-3779.0,284.0,-6184.0,3630.0,3459.0,14571.0,-6292.0,4132.0,5395.0,2785.0,-330.0,-3055.0,-823.0,5517.0,-698.0,3730.0,-8092.0,7080.0,2008.0,9356.0,2501.0,10447.0,3028.0,-255.0,0
898.0,425.0,1421.0,-321.0,352.0,-1346.0,753.0,-394.0,1475.0,359.0,2530.0,-994.0,-937.0,-4594.0,2433.0,-1263.0,-1861.0,-733.0,539.0,1485.0,548.0,-1316.0,506.0,-786.0,3240.0,-1588.0,-178.0,-1854.0,-387.0,-2505.0,-141.0,1791.0,0
-580.0,-389.0,3377.0,-2032.0,157.0,-5112.0,2451.0,-1841.0,4205.0,265.0,7118.0,-3614.0,-3315.0,-14970.0,7116.0,-4251.0,-5677.0,-2603.0,1004.0,3812.0,1359.0,-4980.0,1136.0,-3329.0,9443.0,-6411.0,-1516.0,-8192.0,-1997.0,-9912.0,-1902.0,1063.0,0
-256.0,707.0,-213.0,784.0,357.0,1318.0,-222.0,575.0,-714.0,170.0,-1051.0,662.0,764.0,2901.0,-1051.0,777.0,1092.0,659.0,177.0,-464.0,61.0,1385.0,4.0,861.0,-1147.0,1655.0,503.0,2218.0,653.0,2087.0,1047.0,-1168.0,0
1270.0,1688.0,-2617.0,2870.0,596.0,5906.0,-2233.0,2326.0,-4073.0,266.0,-6671.0,3841.0,3657.0,15564.0,-6756.0,4435.0,5787.0,2956.0,-361.0,-3311.0,-895.0,5860.0,-763.0,3959.0,-8700.0,7528.0,2115.0,9886.0,2626.0,11022.0,3212.0,-668.0,0
1136.0,709.0,676.0,303.0,443.0,57.0,186.0,114.0,425.0,392.0,786.0,-32.0,-63.0,-723.0,711.0,-132.0,-394.0,-39.0,401.0,624.0,278.0,80.0,282.0,178.0,916.0,195.0,287.0,422.0,217.0,121.0,550.0,1572.0,0
-389.0,-396.0,3504.0,-2101.0,212.0,-5279.0,2530.0,-1910.0,4354.0,332.0,7372.0,-3690.0,-3426.0,-15471.0,7404.0,-4373.0,-5864.0,-2716.0,1052.0,3990.0,1419.0,-5140.0,1199.0,-3386.0,9712.0,-6616.0,-1538.0,-8458.0,-2058.0,-10233.0,-1947.0,1394.0,0
-429.0,450.0,561.0,178.0,336.0,-68.0,397.0,68.0,307.0,212.0,676.0,-232.0,-94.0,-939.0,749.0,-286.0,-314.0,-17.0,372.0,484.0,387.0,33.0,274.0,-11.0,1106.0,-89.0,61.0,-38.0,86.0,-571.0,427.0,-903.0,0
1055.0,1638.0,-2650.0,2827.0,565.0,5913.0,-2228.0,2319.0,-4150.0,236.0,-6764.0,3828.0,3661.0,15590.0,-6786.0,4426.0,5829.0,2951.0,-408.0,-3357.0,-884.0,5863.0,-772.0,3935.0,-8802.0,7491.0,2053.0,9834.0,2602.0,10942.0,3180.0,-1075.0,0
1315.0,935.0,-89.0,888.0,448.0,1437.0,-392.0,633.0,-666.0,368.0,-1005.0,888.0,813.0,3124.0,-1061.0,942.0,1068.0,652.0,184.0,-333.0,-24.0,1431.0,44.0,1076.0,-1449.0,1913.0,724.0,2665.0,759.0,2715.0,1146.0,1247.0,0
-167.0,-348.0,3446.0,-2038.0,182.0,-5115.0,2466.0,-1854.0,4245.0,343.0,7182.0,-3580.0,-3326.0,-15044.0,7211.0,-4233.0,-5705.0,-2634.0,1029.0,3907.0,1369.0,-5005.0,1188.0,-3271.0,9393.0,-6411.0,-1475.0,-8166.0,-2009.0,-9886.0,-1902.0,1753.0,0
-605.0,208.0,1305.0,-432.0,251.0,-1408.0,972.0,-480.0,1345.0,219.0,2396.0,-1189.0,-969.0,-4727.0,2459.0,-1367.0,-1750.0,-713.0,547.0,1358.0,677.0,-1310.0,512.0,-910.0,3331.0,-1822.0,-397.0,-2261.0,-499.0,-3128.0,-226.0,-414.0,0
814.0,1557.0,-2490.0,2685.0,522.0,5574.0,-2072.0,2163.0,-3895.0,195.0,-6344.0,3546.0,3440.0,14651.0,-6375.0,4131.0,5459.0,2774.0,-347.0,-3174.0,-788.0,5557.0,-718.0,3719.0,-8218.0,7038.0,1914.0,9286.0,2439.0,10268.0,3005.0,-1114.0,0
1417.0,1174.0,-842.0,1470.0,482.0,2759.0,-991.0,1101.0,-1650.0,319.0,-2652.0,1751.0,1633.0,6773.0,-2741.0,1958.0,2414.0,1286.0,40.0,-1218.0,-262.0,2741.0,-207.0,1936.0,-3615.0,3573.0,1129.0,4847.0,1305.0,5211.0,1734.0,1053.0,0
79.0,-218.0,3164.0,-1809.0,209.0,-4597.0,2195.0,-1675.0,3898.0,353.0,6588.0,-3200.0,-3020.0,-13611.0,6559.0,-3842.0,-5206.0,-2429.0,999.0,3557.0,1273.0,-4489.0,1071.0,-2920.0,8519.0,-5736.0,-1287.0,-7246.0,-1784.0,-8835.0,-1651.0,1991.0,0
-689.0,0.0,1980.0,-1010.0,194.0,-2667.0,1477.0,-935.0,2316.0,205.0,4002.0,-2000.0,-1777.0,-8192.0,4025.0,-2370.0,-3072.0,-1396.0,706.0,2153.0,928.0,-2546.0,705.0,-1716.0,5355.0,-3386.0,-797.0,-4258.0,-1024.0,-5458.0,-791.0,-46.0,0
570.0,1435.0,-2136.0,2362.0,475.0,4885.0,-1757.0,1938.0,-3384.0,175.0,-5479.0,3114.0,3021.0,12796.0,-5526.0,3581.0,4789.0,2434.0,-266.0,-2758.0,-636.0,4893.0,-600.0,3291.0,-7088.0,6174.0,1680.0,8142.0,2152.0,8941.0,2707.0,-1314.0,0
1498.0,1405.0,-1471.0,2001.0,506.0,3928.0,-1443.0,1582.0,-2518.0,314.0,-4100.0,2564.0,2398.0,10040.0,-4224.0,2857.0,3660.0,1900.0,-115.0,-1971.0,-475.0,3905.0,-378.0,2736.0,-5504.0,5041.0,1506.0,6733.0,1802.0,7428.0,2293.0,623.0,0
347.0,-32.0,2744.0,-1406.0,247.0,-3734.0,1839.0,-1309.0,3303.0,375.0,5565.0,-2625.0,-2476.0,-11266.0,5469.0,-3194.0,-4357.0,-1997.0,867.0,3049.0,1116.0,-3653.0,977.0,-2336.0,7175.0,-4660.0,-983.0,-5855.0,-1426.0,-7157.0,-1257.0,2016.0,0
-725.0,-175.0,2603.0,-1433.0,192.0,-3704.0,1950.0,-1297.0,3147.0,254.0,5382.0,-2682.0,-2417.0,-11136.0,5358.0,-3195.0,-4188.0,-1917.0,853.0,2908.0,1172.0,-3561.0,936.0,-2396.0,7169.0,-4700.0,-1106.0,-5983.0,-1444.0,-7394.0,-1260.0,346.0,0
267.0,1207.0,-1616.0,1931.0,441.0,3911.0,-1304.0,1571.0,-2656.0,192.0,-4267.0,2436.0,2422.0,10078.0,-4309.0,2818.0,3768.0,1947.0,-140.0,-2104.0,-414.0,3961.0,-412.0,2617.0,-5431.0,4931.0,1361.0,6508.0,1750.0,7052.0,2233.0,-1462.0,0
1474.0,1539.0,-2021.0,2399.0,540.0,4882.0,-1826.0,1916.0,-3255.0,302.0,-5309.0,3175.0,2987.0,12659.0,-5419.0,3610.0,4647.0,2409.0,-239.0,-2577.0,-653.0,4843.0,-547.0,3326.0,-7013.0,6219.0,1818.0,8262.0,2207.0,9166.0,2708.0,88.0,0
636.0,196.0,2126.0,-911.0,294.0,-2612.0,1359.0,-923.0,2468.0,370.0,4199.0,-1873.0,-1798.0,-8221.0,4110.0,-2296.0,-3204.0,-1404.0,728.0,2386.0,899.0,-2560.0,785.0,-1595.0,5394.0,-3280.0,-599.0,-4016.0,-938.0,-5056.0,-742.0,1956.0,0
-696.0,-306.0,3028.0,-1799.0,149.0,-4527.0,2258.0,-1650.0,3774.0,248.0,6416.0,-3265.0,-2992.0,-13444.0,6426.0,-3845.0,-5084.0,-2336.0,928.0,3485.0,1324.0,-4382.0,1078.0,-2941.0,8524.0,-5760.0,-1377.0,-7309.0,-1792.0,-8975.0,-1660.0,740.0,0
-12.0,995.0,-995.0,1412.0,388.0,2732.0,-796.0,1097.0,-1761.0,163.0,-2773.0,1605.0,1642.0,6755.0,-2759.0,1852.0,2519.0,1377.0,-16.0,-1309.0,-149.0,2768.0,-205.0,1807.0,-3440.0,3394.0,938.0,4531.0,1229.0,4697.0,1674.0,-1341.0,0
1393.0,1674.0,-2429.0,2704.0,554.0,5557.0,-2104.0,2170.0,-3804.0,262.0,-6185.0,3594.0,3421.0,14552.0,-6278.0,4118.0,5374.0,2768.0,-355.0,-3048.0,-780.0,5503.0,-678.0,3741.0,-8124.0,7061.0,1993.0,9333.0,2457.0,10388.0,3029.0,-297.0,0
884.0,446.0,1408.0,-366.0,323.0,-1371.0,772.0,-451.0,1457.0,341.0,2552.0,-1043.0,-988.0,-4662.0,2475.0,-1310.0,-1905.0,-773.0,514.0,1507.0,594.0,-1337.0,513.0,-778.0,3234.0,-1640.0,-215.0,-1933.0,-439.0,-2597.0,-176.0,1738.0,0
-579.0,-385.0,3338.0,-2074.0,129.0,-5087.0,2449.0,-1857.0,4158.0,248.0,7074.0,-3653.0,-3336.0,-14926.0,7114.0,-4278.0,-5690.0,-2637.0,973.0,3818.0,1386.0,-4962.0,1131.0,-3303.0,9384.0,-6441.0,-1548.0,-8185.0,-2056.0,-9940.0,-1942.0,1047.0,0
-248.0,731.0,-255.0,776.0,336.0,1378.0,-236.0,590.0,-783.0,154.0,-1126.0,650.0,772.0,3029.0,-1090.0,776.0,1116.0,668.0,148.0,-451.0,91.0,1432.0,-1.0,904.0,-1225.0,1661.0,475.0,2284.0,635.0,2116.0,1020.0,-1191.0,0
1256.0,1691.0,-2644.0,2839.0,550.0,5913.0,-2263.0,2291.0,-4113.0,224.0,-6692.0,3804.0,3662.0,15583.0,-6780.0,4384.0,5748.0,2933.0,-427.0,-3308.0,-865.0,5853.0,-771.0,3942.0,-8734.0,7477.0,2074.0,9867.0,2596.0,10988.0,3151.0,-709.0,0
1114.0,697.0,667.0,272.0,398.0,31.0,184.0,59.0,407.0,348.0,814.0,-83.0,-74.0,-783.0,703.0,-207.0,-467.0,-69.0,337.0,613.0,310.0,28.0,273.0,124.0,955.0,120.0,268.0,378.0,166.0,39.0,473.0,1546.0,0
-406.0,-386.0,3509.0,-2103.0,190.0,-5269.0,2538.0,-1939.0,4323.0,299.0,7379.0,-3725.0,-3444.0,-15450.0,7376.0,-4399.0,-5905.0,-2699.0,1005.0,3985.0,1440.0,-5157.0,1181.0,-3403.0,9715.0,-6647.0,-1562.0,-8425.0,-2077.0,-10225.0,-1978.0,1438.0,0
-438.0,491.0,554.0,194.0,332.0,-37.0,385.0,70.0,272.0,200.0,671.0,-253.0,-80.0,-839.0,698.0,-290.0,-338.0,5.0,327.0,469.0,392.0,53.0,254.0,5.0,1064.0,-71.0,29.0,23.0,74.0,-487.0,416.0,-860.0,0
1061.0,1696.0,-2634.0,2865.0,574.0,5897.0,-2226.0,2338.0,-4142.0,236.0,-6724.0,3818.0,3686.0,15639.0,-6756.0,4408.0,5790.0,2982.0,-423.0,-3348.0,-861.0,5878.0,-761.0,3962.0,-8747.0,7507.0,2054.0,9882.0,2584.0,10992.0,3170.0,-983.0,0
1280.0,963.0,-82.0,914.0,457.0,1388.0,-401.0,609.0,-635.0,348.0,-948.0,851.0,795.0,3057.0,-1004.0,882.0,976.0,639.0,168.0,-304.0,0.0,1374.0,35.0,1038.0,-1359.0,1871.0,690.0,2648.0,720.0,2673.0,1106.0,1333.0,0
-233.0,-349.0,3408.0,-2029.0,172.0,-5159.0,2418.0,-1892.0,4223.0,304.0,7174.0,-3641.0,-3360.0,-15086.0,7200.0,-4296.0,-5791.0,-2676.0,972.0,3887.0,1345.0,-5060.0,1138.0,-3331.0,9389.0,-6466.0,-1518.0,-8178.0,-2055.0,-9917.0,-1928.0,1568.0,0
-649.0,203.0,1248.0,-425.0,242.0,-1425.0,922.0,-473.0,1282.0,181.0,2333.0,-1212.0,-966.0,-4664.0,2393.0,-1388.0,-1790.0,-758.0,492.0,1330.0,627.0,-1329.0,441.0,-931.0,3252.0,-1846.0,-428.0,-2238.0,-527.0,-3117.0,-222.0,-491.0,0
809.0,1563.0,-2509.0,2698.0,518.0,5560.0,-2084.0,2188.0,-3935.0,200.0,-6366.0,3541.0,3467.0,14697.0,-6392.0,4120.0,5443.0,2777.0,-372.0,-3173.0,-816.0,5546.0,-749.0,3706.0,-8240.0,7015.0,1903.0,9273.0,2437.0,10248.0,3009.0,-1156.0,0
1397.0,1159.0,-836.0,1485.0,473.0,2696.0,-966.0,1110.0,-1647.0,333.0,-2623.0,1710.0,1620.0,6701.0,-2710.0,1909.0,2367.0,1295.0,17.0,-1170.0,-258.0,2693.0,-206.0,1907.0,-3563.0,3509.0,1100.0,4787.0,1296.0,5154.0,1731.0,902.0,0
41.0,-231.0,3165.0,-1775.0,230.0,-4629.0,2205.0,-1656.0,3881.0,359.0,6588.0,-3239.0,-3042.0,-13647.0,6567.0,-3864.0,-5268.0,-2405.0,954.0,3587.0,1283.0,-4503.0,1088.0,-2930.0,8561.0,-5771.0,-1295.0,-7275.0,-1785.0,-8866.0,-1657.0,1949.0,0
-694.0,18.0,1972.0,-943.0,257.0,-2641.0,1472.0,-904.0,2264.0,236.0,3947.0,-1980.0,-1750.0,-8086.0,4005.0,-2350.0,-3084.0,-1374.0,682.0,2163.0,951.0,-2484.0,721.0,-1691.0,5338.0,-3345.0,-779.0,-4208.0,-988.0,-5421.0,-781.0,-149.0,0
560.0,1436.0,-2161.0,2400.0,521.0,4891.0,-1778.0,1940.0,-3429.0,192.0,-5526.0,3110.0,3027.0,12855.0,-5533.0,3585.0,4761.0,2417.0,-277.0,-2756.0,-598.0,4904.0,-617.0,3280.0,-7110.0,6186.0,1663.0,8164.0,2167.0,8922.0,2701.0,-1353.0,0
1487.0,1397.0,-1479.0,1989.0,548.0,3879.0,-1456.0,1569.0,-2530.0,334.0,-4102.0,2539.0,2362.0,9964.0,-4185.0,2821.0,3594.0,1870.0,-115.0,-1963.0,-457.0,3856.0,-417.0,2687.0,-5442.0,4991.0,1483.0,6697.0,1798.0,7327.0,2279.0,589.0,0
339.0,-55.0,2726.0,-1433.0,260.0,-3783.0,1811.0,-1354.0,3263.0,375.0,5542.0,-2644.0,-2513.0,-11359.0,5504.0,-3237.0,-4415.0,-2018.0,857.0,3044.0,1090.0,-3706.0,928.0,-2383.0,7222.0,-4727.0,-1020.0,-5896.0,-1430.0,-7273.0,-1279.0,1874.0,0
-720.0,-203.0,2565.0,-1457.0,195.0,-3715.0,1882.0,-1338.0,3059.0,248.0,5299.0,-2696.0,-2459.0,-11100.0,5323.0,-3226.0,-4219.0,-1917.0,817.0,2862.0,1113.0,-3574.0,887.0,-2416.0,7138.0,-4728.0,-1136.0,-5970.0,-1458.0,-7428.0,-1277.0,263.0,0
299.0,1202.0,-1620.0,1933.0,475.0,3929.0,-1372.0,1565.0,-2722.0,199.0,-4315.0,2466.0,2413.0,10139.0,-4339.0,2796.0,3776.0,1972.0,-150.0,-2124.0,-451.0,3962.0,-469.0,2628.0,-5435.0,4932.0,1336.0,6527.0,1753.0,7067.0,2248.0,-1377.0,0
1496.0,1537.0,-2004.0,2383.0,558.0,4843.0,-1854.0,1919.0,-3272.0,309.0,-5293.0,3172.0,2984.0,12604.0,-5412.0,3551.0,4620.0,2378.0,-236.0,-2567.0,-689.0,4817.0,-585.0,3300.0,-6941.0,6174.0,1754.0,8209.0,2204.0,9129.0,2707.0,161.0,0
628.0,168.0,2160.0,-941.0,289.0,-2682.0,1333.0,-930.0,2443.0,386.0,4196.0,-1898.0,-1803.0,-8292.0,4109.0,-2355.0,-3255.0,-1468.0,738.0,2382.0,842.0,-2607.0,755.0,-1659.0,5479.0,-3314.0,-658.0,-4078.0,-951.0,-5099.0,-763.0,1913.0,0
-676.0,-299.0,3038.0,-1817.0,158.0,-4533.0,2222.0,-1636.0,3719.0,279.0,6372.0,-3253.0,-2982.0,-13379.0,6360.0,-3838.0,-5074.0,-2355.0,936.0,3456.0,1268.0,-4384.0,1028.0,-2960.0,8561.0,-5741.0,-1390.0,-7308.0,-1774.0,-8934.0,-1657.0,661.0,0
21.0,1016.0,-977.0,1399.0,401.0,2760.0,-831.0,1119.0,-1800.0,202.0,-2834.0,1631.0,1653.0,6863.0,-2847.0,1884.0,2555.0,1369.0,6.0,-1354.0,-195.0,2805.0,-255.0,1824.0,-3414.0,3413.0,925.0,4560.0,1257.0,4759.0,1687.0,-1314.0,0
1400.0,1678.0,-2399.0,2686.0,555.0,5555.0,-2146.0,2181.0,-3809.0,288.0,-6213.0,3601.0,3415.0,14558.0,-6311.0,4121.0,5360.0,2748.0,-333.0,-3064.0,-816.0,5498.0,-723.0,3736.0,-8050.0,7037.0,1955.0,9317.0,2470.0,10355.0,3005.0,-241.0,0
875.0,447.0,1450.0,-348.0,350.0,-1373.0,751.0,-439.0,1484.0,391.0,2578.0,-1024.0,-979.0,-4702.0,2471.0,-1312.0,-1919.0,-791.0,529.0,1523.0,573.0,-1335.0,496.0,-797.0,3326.0,-1685.0,-247.0,-1962.0,-408.0,-2666.0,-183.0,1752.0,0
-559.0,-355.0,3364.0,-2018.0,178.0,-5029.0,2444.0,-1822.0,4180.0,339.0,7102.0,-3570.0,-3279.0,-14862.0,7074.0,-4228.0,-5632.0,-2606.0,985.0,3832.0,1379.0,-4902.0,1138.0,-3274.0,9413.0,-6402.0,-1558.0,-8140.0,-1969.0,-9902.0,-1891.0,1005.0,0
-200.0,764.0,-258.0,828.0,377.0,1453.0,-252.0,642.0,-785.0,244.0,-1137.0,741.0,856.0,3136.0,-1151.0,843.0,1183.0,698.0,164.0,-466.0,83.0,1499.0,-1.0,955.0,-1251.0,1730.0,486.0,2364.0,711.0,2210.0,1086.0,-1219.0,0
1287.0,1712.0,-2647.0,2869.0,589.0,5943.0,-2281.0,2344.0,-4115.0,292.0,-6681.0,3839.0,3698.0,15564.0,-6795.0,4389.0,5766.0,2937.0,-388.0,-3307.0,-887.0,5886.0,-774.0,3979.0,-8714.0,7494.0,2050.0,9884.0,2622.0,10998.0,3178.0,-655.0,0
1129.0,697.0,661.0,282.0,407.0,19.0,163.0,96.0,426.0,404.0,875.0,-95.0,-78.0,-878.0,724.0,-237.0,-494.0,-81.0,378.0,637.0,284.0,25.0,268.0,135.0,993.0,103.0,198.0,323.0,139.0,-12.0,465.0,1556.0,0
-388.0,-384.0,3454.0,-2112.0,160.0,-5256.0,2484.0,-1910.0,4320.0,330.0,7391.0,-3735.0,-3412.0,-15461.0,7337.0,-4406.0,-5913.0,-2713.0,1035.0,3980.0,1400.0,-5149.0,1170.0,-3401.0,9692.0,-6617.0,-1618.0,-8457.0,-2098.0,-10230.0,-1985.0,1403.0,0
-426.0,472.0,469.0,210.0,314.0,41.0,315.0,76.0,233.0,205.0,623.0,-254.0,-58.0,-767.0,605.0,-277.0,-306.0,-18.0,339.0,432.0,361.0,75.0,221.0,22.0,986.0,-21.0,13.0,53.0,85.0,-438.0,425.0,-899.0,0
1066.0,1638.0,-2704.0,2864.0,574.0,5956.0,-2275.0,2305.0,-4182.0,234.0,-6745.0,3795.0,3667.0,15626.0,-6839.0,4408.0,5803.0,2937.0,-412.0,-3356.0,-895.0,5882.0,-813.0,3971.0,-8818.0,7516.0,2034.0,9868.0,2594.0,10990.0,3180.0,-1019.0,0
1282.0,919.0,-96.0,887.0,464.0,1409.0,-412.0,609.0,-653.0,355.0,-920.0,826.0,777.0,2961.0,-1032.0,866.0,983.0,607.0,193.0,-279.0,-8.0,1369.0,13.0,1042.0,-1356.0,1849.0,663.0,2594.0,745.0,2634.0,1112.0,1281.0,0
-197.0,-359.0,3440.0,-2021.0,206.0,-5112.0,2446.0,-1851.0,4241.0,332.0,7219.0,-3595.0,-3351.0,-15073.0,7195.0,-4274.0,-5745.0,-2664.0,1010.0,3913.0,1379.0,-5010.0,1155.0,-3289.0,9421.0,-6429.0,-1518.0,-8175.0,-1996.0,-9890.0,-1898.0,1658.0,0
-593.0,200.0,1251.0,-389.0,280.0,-1347.0,951.0,-422.0,1293.0,196.0,2355.0,-1135.0,-952.0,-4537.0,2361.0,-1333.0,-1698.0,-708.0,513.0,1326.0,658.0,-1252.0,469.0,-882.0,3214.0,-1753.0,-396.0,-2156.0,-461.0,-3006.0,-177.0,-586.0,0
828.0,1548.0,-2522.0,2714.0,538.0,5608.0,-2066.0,2202.0,-3934.0,209.0,-6343.0,3595.0,3460.0,14755.0,-6416.0,4146.0,5491.0,2791.0,-381.0,-3176.0,-805.0,5572.0,-749.0,3712.0,-8283.0,7068.0,1914.0,9316.0,2457.0,10305.0,3033.0,-1285.0,0
1402.0,1134.0,-825.0,1461.0,481.0,2705.0,-968.0,1092.0,-1629.0,328.0,-2563.0,1734.0,1595.0,6631.0,-2707.0,1882.0,2338.0,1273.0,-8.0,-1178.0,-280.0,2657.0,-243.0,1869.0,-3558.0,3491.0,1090.0,4747.0,1291.0,5080.0,1720.0,925.0,0
45.0,-247.0,3170.0,-1786.0,204.0,-4610.0,2193.0,-1689.0,3885.0,339.0,6622.0,-3233.0,-3050.0,-13714.0,6559.0,-3897.0,-5283.0,-2418.0,921.0,3585.0,1252.0,-4531.0,1038.0,-2966.0,8543.0,-5802.0,-1316.0,-7316.0,-1801.0,-8915.0,-1665.0,1862.0,0
-695.0,0.0,1947.0,-932.0,217.0,-2593.0,1440.0,-909.0,2232.0,201.0,3929.0,-1980.0,-1762.0,-8050.0,3941.0,-2352.0,-3058.0,-1360.0,639.0,2136.0,895.0,-2485.0,669.0,-1714.0,5253.0,-3336.0,-790.0,-4186.0,-988.0,-5363.0,-765.0,-178.0,0
563.0,1397.0,-2165.0,2411.0,501.0,4924.0,-1804.0,1950.0,-3432.0,184.0,-5525.0,3116.0,3036.0,12891.0,-5587.0,3596.0,4786.0,2442.0,-320.0,-2768.0,-664.0,4930.0,-657.0,3255.0,-7164.0,6218.0,1688.0,8191.0,2188.0,8994.0,2704.0,-1448.0,0
1477.0,1349.0,-1465.0,1985.0,529.0,3870.0,-1481.0,1540.0,-2509.0,316.0,-4036.0,2511.0,2351.0,9893.0,-4174.0,2818.0,3557.0,1862.0,-161.0,-1943.0,-494.0,3833.0,-449.0,2643.0,-5442.0,4990.0,1480.0,6649.0,1794.0,7309.0,2247.0,497.0,0
334.0,-69.0,2749.0,-1417.0,261.0,-3785.0,1796.0,-1367.0,3289.0,364.0,5627.0,-2653.0,-2516.0,-11411.0,5517.0,-3216.0,-4443.0,-2019.0,832.0,3072.0,1091.0,-3718.0,907.0,-2395.0,7235.0,-4721.0,-1019.0,-5925.0,-1434.0,-7278.0,-1287.0,2097.0,0
-720.0,-193.0,2560.0,-1421.0,203.0,-3672.0,1869.0,-1319.0,3082.0,233.0,5320.0,-2678.0,-2412.0,-11017.0,5290.0,-3162.0,-4182.0,-1892.0,806.0,2869.0,1127.0,-3541.0,866.0,-2379.0,7091.0,-4661.0,-1125.0,-5909.0,-1442.0,-7349.0,-1262.0,319.0,0
312.0,1228.0,-1649.0,1982.0,490.0,3989.0,-1353.0,1590.0,-2691.0,183.0,-4307.0,2485.0,2451.0,10250.0,-4355.0,2876.0,3833.0,2001.0,-152.0,-2129.0,-419.0,4001.0,-455.0,2678.0,-5482.0,5005.0,1371.0,6629.0,1772.0,7158.0,2275.0,-1522.0,0
1499.0,1530.0,-2016.0,2425.0,595.0,4860.0,-1810.0,1911.0,-3216.0,329.0,-5245.0,3167.0,2974.0,12596.0,-5366.0,3599.0,4628.0,2406.0,-228.0,-2552.0,-643.0,4804.0,-582.0,3314.0,-6921.0,6188.0,1793.0,8239.0,2197.0,9109.0,2707.0,97.0,0
621.0,158.0,2133.0,-919.0,340.0,-2678.0,1364.0,-942.0,2501.0,405.0,4258.0,-1915.0,-1826.0,-8348.0,4175.0,-2336.0,-3269.0,-1429.0,741.0,2400.0,881.0,-2617.0,749.0,-1660.0,5502.0,-3328.0,-661.0,-4092.0,-985.0,-5136.0,-785.0,1805.0,0
-669.0,-304.0,3023.0,-1776.0,202.0,-4476.0,2264.0,-1613.0,3766.0,309.0,6391.0,-3219.0,-2932.0,-13301.0,6426.0,-3793.0,-5040.0,-2286.0,951.0,3468.0,1329.0,-4344.0,1048.0,-2927.0,8533.0,-5693.0,-1366.0,-7247.0,-1777.0,-8876.0,-1626.0,702.0,0
36.0,1006.0,-987.0,1433.0,429.0,2804.0,-809.0,1145.0,-1767.0,221.0,-2815.0,1668.0,1718.0,6955.0,-2808.0,1916.0,2597.0,1432.0,24.0,-1322.0,-145.0,2856.0,-249.0,1849.0,-3468.0,3478.0,969.0,4624.0,1283.0,4850.0,1727.0,-1456.0,0
1427.0,1657.0,-2384.0,2710.0,590.0,5552.0,-2097.0,2208.0,-3722.0,316.0,-6125.0,3615.0,3453.0,14519.0,-6213.0,4125.0,5376.0,2796.0,-295.0,-2991.0,-758.0,5540.0,-702.0,3747.0,-8020.0,7039.0,2007.0,9309.0,2494.0,10379.0,3022.0,-403.0,0
881.0,435.0,1468.0,-359.0,355.0,-1415.0,785.0,-420.0,1560.0,396.0,2659.0,-1043.0,-983.0,-4795.0,2584.0,-1324.0,-1928.0,-764.0,587.0,1580.0,620.0,-1352.0,509.0,-796.0,3406.0,-1709.0,-196.0,-1994.0,-401.0,-2675.0,-182.0,1776.0,0
-597.0,-371.0,3353.0,-2035.0,159.0,-5066.0,2427.0,-1816.0,4176.0,291.0,7099.0,-3601.0,-3296.0,-14858.0,7100.0,-4240.0,-5635.0,-2591.0,1018.0,3817.0,1390.0,-4927.0,1132.0,-3263.0,9438.0,-6409.0,-1521.0,-8124.0,-1978.0,-9882.0,-1900.0,1050.0,0
-229.0,735.0,-258.0,825.0,344.0,1423.0,-269.0,652.0,-802.0,194.0,-1148.0,727.0,850.0,3194.0,-1153.0,845.0,1187.0,726.0,193.0,-497.0,101.0,1489.0,-7.0,965.0,-1244.0,1751.0,514.0,2422.0,701.0,2258.0,1065.0,-1269.0,0
1280.0,1674.0,-2590.0,2846.0,562.0,5894.0,-2232.0,2351.0,-4075.0,277.0,-6639.0,3833.0,3687.0,15532.0,-6744.0,4411.0,5758.0,2967.0,-352.0,-3318.0,-856.0,5858.0,-759.0,3975.0,-8635.0,7491.0,2097.0,9910.0,2611.0,11004.0,3158.0,-781.0,0
1096.0,657.0,732.0,228.0,380.0,-60.0,217.0,79.0,481.0,376.0,894.0,-121.0,-114.0,-1023.0,781.0,-243.0,-524.0,-99.0,395.0,648.0,306.0,-35.0,281.0,114.0,1091.0,56.0,237.0,281.0,124.0,-86.0,440.0,1517.0,0
-444.0,-415.0,3501.0,-2129.0,143.0,-5304.0,2533.0,-1890.0,4345.0,304.0,7368.0,-3734.0,-3447.0,-15514.0,7313.0,-4392.0,-5903.0,-2752.0,1041.0,3972.0,1413.0,-5163.0,1168.0,-3389.0,9731.0,-6631.0,-1561.0,-8446.0,-2110.0,-10255.0,-2014.0,1445.0,0
-445.0,461.0,508.0,216.0,304.0,31.0,362.0,134.0,246.0,187.0,578.0,-217.0,-53.0,-701.0,551.0,-239.0,-263.0,-2.0,338.0,414.0,371.0,110.0,230.0,46.0,981.0,17.0,92.0,142.0,84.0,-407.0,411.0,-909.0,0
1066.0,1645.0,-2650.0,2857.0,553.0,5916.0,-2238.0,2329.0,-4139.0,218.0,-6758.0,3806.0,3673.0,15614.0,-6858.0,4407.0,5820.0,2965.0,-408.0,-3353.0,-882.0,5885.0,-788.0,3959.0,-8795.0,7507.0,2078.0,9904.0,2582.0,10970.0,3130.0,-1082.0,0
1259.0,914.0,-59.0,850.0,421.0,1319.0,-391.0,568.0,-586.0,337.0,-897.0,783.0,746.0,2839.0,-1026.0,808.0,930.0,583.0,160.0,-279.0,-24.0,1331.0,18.0,1009.0,-1302.0,1774.0,687.0,2537.0,692.0,2536.0,1022.0,1199.0,0
-215.0,-358.0,3433.0,-2042.0,163.0,-5156.0,2450.0,-1863.0,4266.0,322.0,7200.0,-3633.0,-3350.0,-15127.0,7164.0,-4316.0,-5771.0,-2657.0,979.0,3899.0,1358.0,-5030.0,1139.0,-3282.0,9417.0,-6474.0,-1470.0,-8179.0,-2017.0,-9923.0,-1953.0,1672.0,0
-573.0,222.0,1243.0,-406.0,262.0,-1323.0,930.0,-400.0,1272.0,205.0,2288.0,-1112.0,-896.0,-4484.0,2301.0,-1313.0,-1678.0,-670.0,509.0,1309.0,646.0,-1227.0,459.0,-821.0,3161.0,-1729.0,-329.0,-2097.0,-424.0,-2951.0,-192.0,-494.0,0
879.0,1590.0,-2492.0,2685.0,554.0,5626.0,-2055.0,2240.0,-3908.0,224.0,-6355.0,3629.0,3521.0,14766.0,-6411.0,4180.0,5519.0,2837.0,-337.0,-3154.0,-770.0,5603.0,-725.0,3790.0,-8277.0,7093.0,1983.0,9375.0,2530.0,10337.0,3035.0,-1224.0,0
1432.0,1173.0,-782.0,1426.0,487.0,2686.0,-935.0,1112.0,-1576.0,344.0,-2534.0,1724.0,1622.0,6541.0,-2642.0,1885.0,2320.0,1287.0,41.0,-1126.0,-209.0,2676.0,-210.0,1904.0,-3484.0,3455.0,1127.0,4723.0,1318.0,5042.0,1690.0,986.0,0
52.0,-223.0,3188.0,-1837.0,192.0,-4638.0,2197.0,-1671.0,3912.0,336.0,6615.0,-3253.0,-3039.0,-13765.0,6592.0,-3903.0,-5289.0,-2428.0,954.0,3599.0,1297.0,-4524.0,1049.0,-2964.0,8559.0,-5829.0,-1315.0,-7336.0,-1777.0,-8931.0,-1699.0,1936.0,0
-692.0,5.0,1937.0,-978.0,189.0,-2573.0,1442.0,-903.0,2241.0,200.0,3848.0,-1964.0,-1721.0,-7995.0,3890.0,-2332.0,-3020.0,-1335.0,665.0,2114.0,912.0,-2464.0,661.0,-1695.0,5161.0,-3316.0,-794.0,-4149.0,-970.0,-5334.0,-776.0,-78.0,0
584.0,1435.0,-2163.0,2379.0,485.0,4965.0,-1765.0,1952.0,-3398.0,198.0,-5596.0,3149.0,3077.0,12938.0,-5594.0,3605.0,4837.0,2494.0,-277.0,-2766.0,-627.0,4975.0,-641.0,3290.0,-7251.0,6235.0,1690.0,8221.0,2198.0,9025.0,2706.0,-1383.0,0
1491.0,1388.0,-1431.0,1957.0,518.0,3877.0,-1407.0,1531.0,-2432.0,346.0,-4036.0,2515.0,2362.0,9821.0,-4115.0,2779.0,3587.0,1915.0,-107.0,-1903.0,-454.0,3855.0,-415.0,2663.0,-5449.0,4940.0,1480.0,6620.0,1785.0,7276.0,2242.0,576.0,0
341.0,-66.0,2759.0,-1455.0,225.0,-3804.0,1850.0,-1394.0,3363.0,372.0,5607.0,-2675.0,-2512.0,-11494.0,5567.0,-3268.0,-4421.0,-1984.0,860.0,3101.0,1111.0,-3717.0,909.0,-2402.0,7209.0,-4787.0,-1041.0,-5987.0,-1456.0,-7325.0,-1313.0,2023.0,0
-710.0,-177.0,2542.0,-1433.0,169.0,-3632.0,1902.0,-1327.0,3114.0,240.0,5263.0,-2672.0,-2374.0,-10961.0,5277.0,-3175.0,-4127.0,-1859.0,828.0,2863.0,1126.0,-3516.0,852.0,-2394.0,6994.0,-4662.0,-1112.0,-5891.0,-1420.0,-7326.0,-1258.0,339.0,0
324.0,1224.0,-1652.0,1954.0,456.0,4013.0,-1344.0,1593.0,-2692.0,195.0,-4364.0,2484.0,2494.0,10301.0,-4401.0,2854.0,3857.0,2020.0,-143.0,-2152.0,-443.0,4018.0,-471.0,2640.0,-5589.0,5005.0,1367.0,6638.0,1779.0,7168.0,2274.0,-1410.0,0
1504.0,1530.0,-1988.0,2371.0,557.0,4830.0,-1815.0,1892.0,-3199.0,304.0,-5252.0,3144.0,2990.0,12500.0,-5366.0,3538.0,4591.0,2393.0,-232.0,-2561.0,-669.0,4766.0,-573.0,3266.0,-6955.0,6126.0,1774.0,8164.0,2166.0,9053.0,2683.0,102.0,0
607.0,174.0,2171.0,-941.0,305.0,-2713.0,1370.0,-954.0,2535.0,373.0,4270.0,-1925.0,-1813.0,-8466.0,4200.0,-2401.0,-3321.0,-1451.0,731.0,2388.0,861.0,-2683.0,750.0,-1680.0,5505.0,-3388.0,-648.0,-4182.0,-997.0,-5204.0,-797.0,1839.0,0
-709.0,-312.0,3000.0,-1789.0,157.0,-4489.0,2236.0,-1629.0,3721.0,249.0,6340.0,-3231.0,-2947.0,-13310.0,6370.0,-3857.0,-5059.0,-2339.0,921.0,3395.0,1278.0,-4386.0,1027.0,-2923.0,8429.0,-5720.0,-1372.0,-7270.0,-1782.0,-8879.0,-1657.0,599.0,0
-5.0,988.0,-1071.0,1410.0,387.0,2786.0,-861.0,1110.0,-1855.0,170.0,-2918.0,1634.0,1684.0,6973.0,-2892.0,1858.0,2587.0,1369.0,-30.0,-1434.0,-207.0,2789.0,-280.0,1856.0,-3599.0,3450.0,937.0,4633.0,1238.0,4844.0,1684.0,-1441.0,0
1390.0,1631.0,-2423.0,2654.0,537.0,5492.0,-2113.0,2156.0,-3800.0,273.0,-6154.0,3566.0,3392.0,14425.0,-6243.0,4031.0,5316.0,2728.0,-350.0,-3062.0,-810.0,5419.0,-725.0,3714.0,-8060.0,6951.0,1956.0,9257.0,2421.0,10299.0,2976.0,-349.0,0
843.0,382.0,1448.0,-421.0,285.0,-1486.0,796.0,-487.0,1509.0,360.0,2667.0,-1080.0,-1051.0,-4935.0,2590.0,-1428.0,-2000.0,-836.0,547.0,1541.0,596.0,-1458.0,501.0,-839.0,3412.0,-1814.0,-251.0,-2092.0,-476.0,-2777.0,-239.0,1705.0,0
-615.0,-402.0,3322.0,-2044.0,119.0,-5074.0,2422.0,-1841.0,4126.0,270.0,7054.0,-3589.0,-3308.0,-14846.0,7071.0,-4284.0,-5648.0,-2617.0,1005.0,3773.0,1385.0,-4954.0,1105.0,-3264.0,9383.0,-6433.0,-1533.0,-8149.0,-2020.0,-9883.0,-1929.0,999.0,0
-249.0,712.0,-298.0,827.0,352.0,1472.0,-288.0,636.0,-841.0,181.0,-1211.0,755.0,864.0,3293.0,-1193.0,866.0,1225.0,707.0,169.0,-542.0,93.0,1511.0,-34.0,996.0,-1306.0,1768.0,536.0,2466.0,685.0,2301.0,1065.0,-1215.0,0
1263.0,1663.0,-2616.0,2854.0,584.0,5917.0,-2256.0,2312.0,-4082.0,270.0,-6649.0,3837.0,3668.0,15546.0,-6718.0,4401.0,5774.0,2924.0,-373.0,-3314.0,-851.0,5854.0,-768.0,3983.0,-8608.0,7460.0,2109.0,9898.0,2603.0,10977.0,3162.0,-688.0,0
1112.0,671.0,744.0,263.0,433.0,-24.0,217.0,79.0,517.0,399.0,965.0,-87.0,-119.0,-1030.0,871.0,-269.0,-501.0,-105.0,416.0,694.0,340.0,-29.0,318.0,124.0,1210.0,-3.0,279.0,249.0,144.0,-121.0,447.0,1548.0,0
-378.0,-385.0,3509.0,-2078.0,224.0,-5222.0,2525.0,-1869.0,4387.0,362.0,7406.0,-3645.0,-3406.0,-15408.0,7413.0,-4391.0,-5830.0,-2712.0,1065.0,4016.0,1458.0,-5112.0,1229.0,-3353.0,9805.0,-6623.0,-1495.0,-8402.0,-2051.0,-10219.0,-1962.0,1425.0,0
-400.0,499.0,482.0,264.0,355.0,123.0,339.0,153.0,271.0,236.0,562.0,-116.0,6.0,-543.0,608.0,-204.0,-179.0,29.0,359.0,423.0,404.0,182.0,260.0,91.0,991.0,65.0,142.0,213.0,142.0,-314.0,492.0,-834.0,0
1111.0,1679.0,-2648.0,2906.0,577.0,5970.0,-2231.0,2373.0,-4095.0,274.0,-6732.0,3889.0,3707.0,15680.0,-6772.0,4435.0,5850.0,2968.0,-370.0,-3350.0,-840.0,5935.0,-754.0,3979.0,-8716.0,7522.0,2131.0,9950.0,2617.0,11025.0,3200.0,-933.0,0
1305.0,917.0,-34.0,885.0,449.0,1335.0,-384.0,615.0,-547.0,368.0,-827.0,826.0,753.0,2799.0,-896.0,818.0,947.0,591.0,218.0,-244.0,45.0,1339.0,61.0,999.0,-1172.0,1735.0,709.0,2518.0,700.0,2521.0,1071.0,1323.0,0
-198.0,-356.0,3453.0,-2018.0,199.0,-5117.0,2424.0,-1840.0,4265.0,339.0,7245.0,-3582.0,-3358.0,-15103.0,7229.0,-4313.0,-5733.0,-2670.0,1036.0,3915.0,1380.0,-5020.0,1166.0,-3301.0,9489.0,-6482.0,-1478.0,-8190.0,-2023.0,-9915.0,-1937.0,1680.0,0
-587.0,237.0,1233.0,-346.0,286.0,-1261.0,909.0,-359.0,1279.0,219.0,2279.0,-1064.0,-897.0,-4359.0,2311.0,-1307.0,-1605.0,-677.0,541.0,1292.0,645.0,-1177.0,461.0,-827.0,3173.0,-1671.0,-346.0,-2045.0,-425.0,-2883.0,-178.0,-541.0,0
847.0,1580.0,-2518.0,2737.0,556.0,5647.0,-2079.0,2245.0,-3899.0,227.0,-6368.0,3634.0,3488.0,14821.0,-6417.0,4152.0,5570.0,2807.0,-350.0,-3179.0,-803.0,5618.0,-737.0,3750.0,-8259.0,7105.0,1959.0,9376.0,2504.0,10375.0,3020.0,-1228.0,0
1411.0,1152.0,-773.0,1463.0,496.0,2668.0,-923.0,1083.0,-1555.0,350.0,-2491.0,1713.0,1579.0,6465.0,-2596.0,1840.0,2342.0,1243.0,27.0,-1129.0,-249.0,2631.0,-182.0,1858.0,-3392.0,3417.0,1098.0,4660.0,1289.0,5022.0,1666.0,945.0,0
43.0,-247.0,3202.0,-1810.0,214.0,-4632.0,2217.0,-1689.0,3935.0,361.0,6641.0,-3241.0,-3053.0,-13782.0,6609.0,-3913.0,-5258.0,-2454.0,955.0,3600.0,1261.0,-4548.0,1078.0,-2986.0,8671.0,-5842.0,-1337.0,-7381.0,-1804.0,-8948.0,-1717.0,1872.0,0
-677.0,11.0,1934.0,-922.0,219.0,-2531.0,1427.0,-891.0,2227.0,212.0,3857.0,-1904.0,-1709.0,-7870.0,3881.0,-2295.0,-2963.0,-1313.0,680.0,2118.0,883.0,-2410.0,709.0,-1673.0,5239.0,-3257.0,-782.0,-4118.0,-944.0,-5260.0,-775.0,-161.0,0
602.0,1444.0,-2164.0,2420.0,508.0,5004.0,-1794.0,1950.0,-3443.0,192.0,-5578.0,3187.0,3092.0,13032.0,-5608.0,3651.0,4874.0,2501.0,-259.0,-2759.0,-667.0,4990.0,-590.0,3293.0,-7187.0,6278.0,1686.0,8235.0,2219.0,9057.0,2714.0,-1447.0,0
1495.0,1386.0,-1424.0,1969.0,552.0,3867.0,-1410.0,1513.0,-2452.0,322.0,-3980.0,2501.0,2361.0,9786.0,-4079.0,2813.0,3564.0,1874.0,-97.0,-1862.0,-468.0,3805.0,-362.0,2620.0,-5338.0,4926.0,1462.0,6545.0,1779.0,7199.0,2227.0,502.0,0
347.0,-45.0,2788.0,-1420.0,293.0,-3794.0,1891.0,-1361.0,3366.0,377.0,5672.0,-2675.0,-2525.0,-11505.0,5631.0,-3213.0,-4434.0,-2013.0,890.0,3168.0,1134.0,-3723.0,980.0,-2424.0,7303.0,-4769.0,-1008.0,-6013.0,-1433.0,-7371.0,-1304.0,1906.0,0
-713.0,-152.0,2545.0,-1392.0,220.0,-3601.0,1909.0,-1281.0,3078.0,249.0,5247.0,-2643.0,-2388.0,-10877.0,5288.0,-3095.0,-4092.0,-1864.0,836.0,2890.0,1137.0,-3460.0,905.0,-2368.0,6964.0,-4606.0,-1079.0,-5854.0,-1388.0,-7282.0,-1240.0,245.0,0
303.0,1269.0,-1650.0,2013.0,483.0,4053.0,-1325.0,1621.0,-2717.0,211.0,-4385.0,2513.0,2493.0,10399.0,-4386.0,2946.0,3912.0,2029.0,-142.0,-2129.0,-424.0,4092.0,-427.0,2691.0,-5623.0,5057.0,1410.0,6682.0,1831.0,7254.0,2300.0,-1420.0,0
1499.0,1570.0,-1966.0,2417.0,587.0,4825.0,-1767.0,1919.0,-3175.0,328.0,-5210.0,3120.0,2973.0,12485.0,-5285.0,3598.0,4611.0,2388.0,-222.0,-2494.0,-631.0,4812.0,-533.0,3293.0,-6913.0,6124.0,1798.0,8138.0,2198.0,9046.0,2695.0,174.0,0
605.0,181.0,2189.0,-947.0,300.0,-2750.0,1401.0,-949.0,2550.0,368.0,4309.0,-1975.0,-1854.0,-8515.0,4266.0,-2374.0,-3321.0,-1473.0,729.0,2452.0,891.0,-2666.0,778.0,-1686.0,5547.0,-3422.0,-652.0,-4196.0,-997.0,-5265.0,-787.0,1934.0,0
-718.0,-308.0,2987.0,-1793.0,136.0,-4489.0,2217.0,-1619.0,3703.0,224.0,6290.0,-3239.0,-2953.0,-13234.0,6339.0,-3805.0,-5057.0,-2337.0,894.0,3402.0,1286.0,-4343.0,1033.0,-2931.0,8389.0,-5690.0,-1365.0,-7205.0,-1798.0,-8839.0,-1633.0,660.0,0
-8.0,991.0,-1073.0,1428.0,368.0,2823.0,-855.0,1149.0,-1885.0,134.0,-2961.0,1662.0,1707.0,7110.0,-2953.0,1938.0,2593.0,1374.0,-48.0,-1427.0,-200.0,2865.0,-276.0,1856.0,-3668.0,3520.0,949.0,4707.0,1234.0,4939.0,1722.0,-1370.0,0
1374.0,1622.0,-2424.0,2660.0,542.0,5490.0,-2078.0,2176.0,-3775.0,241.0,-6153.0,3547.0,3393.0,14440.0,-6264.0,4068.0,5283.0,2695.0,-369.0,-3029.0,-800.0,5445.0,-711.0,3694.0,-8053.0,6983.0,1964.0,9250.0,2405.0,10285.0,2999.0,-236.0,0
820.0,388.0,1471.0,-409.0,333.0,-1495.0,846.0,-449.0,1566.0,341.0,2677.0,-1128.0,-1051.0,-4984.0,2602.0,-1410.0,-2064.0,-862.0,538.0,1585.0,600.0,-1459.0,529.0,-866.0,3454.0,-1794.0,-248.0,-2109.0,-485.0,-2848.0,-225.0,1815.0,0
-632.0,-417.0,3323.0,-2044.0,123.0,-5076.0,2429.0,-1813.0,4126.0,245.0,6999.0,-3617.0,-3298.0,-14825.0,7021.0,-4275.0,-5674.0,-2626.0,973.0,3776.0,1366.0,-4932.0,1107.0,-3303.0,9328.0,-6391.0,-1540.0,-8113.0,-2020.0,-9892.0,-1918.0,1048.0,0
-264.0,695.0,-338.0,809.0,305.0,1444.0,-316.0,650.0,-898.0,145.0,-1326.0,740.0,848.0,3356.0,-1300.0,843.0,1205.0,686.0,121.0,-558.0,47.0,1519.0,-73.0,948.0,-1442.0,1808.0,507.0,2496.0,675.0,2325.0,1074.0,-1239.0,0
1251.0,1640.0,-2642.0,2803.0,527.0,5844.0,-2255.0,2330.0,-4114.0,215.0,-6724.0,3804.0,3638.0,15499.0,-6778.0,4351.0,5693.0,2887.0,-413.0,-3306.0,-886.0,5822.0,-805.0,3915.0,-8699.0,7420.0,2051.0,9863.0,2564.0,10928.0,3142.0,-703.0,0
1066.0,613.0,719.0,186.0,364.0,-129.0,233.0,59.0,513.0,324.0,918.0,-164.0,-180.0,-1176.0,839.0,-326.0,-605.0,-163.0,362.0,693.0,303.0,-108.0,268.0,23.0,1156.0,-101.0,187.0,163.0,63.0,-246.0,401.0,1522.0,0
-467.0,-451.0,3456.0,-2137.0,138.0,-5286.0,2518.0,-1909.0,4335.0,280.0,7309.0,-3731.0,-3448.0,-15492.0,7321.0,-4408.0,-5905.0,-2763.0,984.0,3979.0,1392.0,-5177.0,1169.0,-3430.0,9713.0,-6689.0,-1587.0,-8462.0,-2110.0,-10288.0,-2003.0,1333.0,0
-457.0,464.0,434.0,222.0,302.0,90.0,321.0,143.0,187.0,199.0,463.0,-173.0,0.0,-511.0,504.0,-185.0,-204.0,21.0,293.0,377.0,352.0,169.0,222.0,66.0,890.0,62.0,85.0,203.0,138.0,-304.0,465.0,-943.0,0
1045.0,1639.0,-2700.0,2823.0,531.0,5906.0,-2248.0,2316.0,-4169.0,235.0,-6778.0,3804.0,3688.0,15639.0,-6837.0,4401.0,5800.0,2950.0,-447.0,-3381.0,-896.0,5880.0,-790.0,3953.0,-8763.0,7484.0,2055.0,9879.0,2600.0,10955.0,3162.0,-1008.0,0
1232.0,925.0,-49.0,799.0,428.0,1270.0,-366.0,546.0,-542.0,362.0,-799.0,764.0,724.0,2675.0,-903.0,771.0,846.0,548.0,166.0,-238.0,4.0,1286.0,46.0,946.0,-1133.0,1683.0,645.0,2411.0,679.0,2385.0,1038.0,1278.0,0
-266.0,-330.0,3418.0,-2062.0,176.0,-5167.0,2433.0,-1883.0,4267.0,327.0,7239.0,-3616.0,-3367.0,-15143.0,7195.0,-4321.0,-5816.0,-2692.0,994.0,3913.0,1359.0,-5029.0,1163.0,-3346.0,9491.0,-6514.0,-1516.0,-8252.0,-2028.0,-9979.0,-1927.0,1623.0,0
-625.0,266.0,1183.0,-367.0,259.0,-1274.0,879.0,-391.0,1222.0,199.0,2228.0,-1061.0,-875.0,-4279.0,2224.0,-1277.0,-1644.0,-692.0,486.0,1269.0,629.0,-1166.0,470.0,-843.0,3117.0,-1669.0,-349.0,-2034.0,-422.0,-2865.0,-151.0,-610.0,0
841.0,1600.0,-2546.0,2706.0,529.0,5620.0,-2105.0,2228.0,-3936.0,213.0,-6375.0,3642.0,3523.0,14874.0,-6452.0,4179.0,5509.0,2795.0,-372.0,-3165.0,-792.0,5612.0,-732.0,3743.0,-8271.0,7101.0,1958.0,9354.0,2487.0,10365.0,3044.0,-1260.0,0
1387.0,1150.0,-793.0,1387.0,456.0,2579.0,-947.0,1061.0,-1578.0,316.0,-2477.0,1650.0,1558.0,6413.0,-2604.0,1809.0,2233.0,1197.0,7.0,-1095.0,-263.0,2583.0,-209.0,1811.0,-3377.0,3350.0,1083.0,4584.0,1231.0,4915.0,1655.0,934.0,0
34.0,-235.0,3187.0,-1848.0,205.0,-4697.0,2204.0,-1681.0,3911.0,353.0,6661.0,-3281.0,-3053.0,-13799.0,6623.0,-3918.0,-5312.0,-2485.0,942.0,3635.0,1268.0,-4555.0,1079.0,-2999.0,8655.0,-5878.0,-1309.0,-7392.0,-1842.0,-9012.0,-1707.0,1842.0,0
-662.0,41.0,1920.0,-921.0,239.0,-2512.0,1419.0,-839.0,2211.0,241.0,3806.0,-1899.0,-1635.0,-7754.0,3867.0,-2226.0,-2934.0,-1323.0,676.0,2112.0,918.0,-2379.0,695.0,-1623.0,5167.0,-3221.0,-726.0,-4018.0,-956.0,-5218.0,-736.0,-168.0,0
611.0,1460.0,-2181.0,2424.0,524.0,4995.0,-1818.0,1999.0,-3464.0,207.0,-5637.0,3183.0,3126.0,13097.0,-5639.0,3689.0,4875.0,2471.0,-298.0,-2776.0,-629.0,4999.0,-632.0,3332.0,-7222.0,6281.0,1738.0,8330.0,2224.0,9112.0,2723.0,-1420.0,0
1493.0,1379.0,-1411.0,1950.0,528.0,3795.0,-1436.0,1521.0,-2448.0,327.0,-3989.0,2472.0,2345.0,9715.0,-4085.0,2780.0,3513.0,1814.0,-148.0,-1890.0,-467.0,3769.0,-404.0,2627.0,-5298.0,4854.0,1493.0,6548.0,1754.0,7174.0,2200.0,581.0,0
321.0,-62.0,2774.0,-1459.0,243.0,-3872.0,1827.0,-1389.0,3327.0,356.0,5640.0,-2721.0,-2549.0,-11568.0,5598.0,-3271.0,-4478.0,-2069.0,828.0,3103.0,1092.0,-3783.0,929.0,-2417.0,7343.0,-4853.0,-1016.0,-6042.0,-1487.0,-7423.0,-1352.0,1953.0,0
-699.0,-152.0,2522.0,-1390.0,195.0,-3602.0,1838.0,-1284.0,3034.0,237.0,5181.0,-2634.0,-2351.0,-10801.0,5221.0,-3100.0,-4071.0,-1869.0,788.0,2831.0,1114.0,-3465.0,871.0,-2306.0,6963.0,-4617.0,-1063.0,-5804.0,-1414.0,-7232.0,-1238.0,256.0,0
333.0,1251.0,-1663.0,2011.0,465.0,4055.0,-1393.0,1634.0,-2737.0,198.0,-4455.0,2527.0,2516.0,10471.0,-4462.0,2911.0,3921.0,2031.0,-192.0,-2184.0,-436.0,4082.0,-459.0,2717.0,-5641.0,5059.0,1410.0,6750.0,1785.0,7292.0,2306.0,-1422.0,0
1485.0,1551.0,-1969.0,2376.0,553.0,4772.0,-1826.0,1897.0,-3177.0,297.0,-5230.0,3094.0,2946.0,12398.0,-5322.0,3499.0,4552.0,2358.0,-273.0,-2542.0,-651.0,4757.0,-574.0,3251.0,-6882.0,6063.0,1782.0,8107.0,2114.0,8991.0,2654.0,167.0,0
599.0,176.0,2194.0,-993.0,295.0,-2798.0,1380.0,-964.0,2572.0,374.0,4319.0,-1980.0,-1867.0,-8627.0,4276.0,-2440.0,-3365.0,-1479.0,696.0,2429.0,893.0,-2701.0,747.0,-1719.0,5576.0,-3484.0,-656.0,-4270.0,-1048.0,-5308.0,-847.0,1920.0,0
-685.0,-304.0,2979.0,-1799.0,170.0,-4475.0,2202.0,-1594.0,3704.0,272.0,6278.0,-3200.0,-2913.0,-13219.0,6323.0,-3786.0,-5008.0,-2287.0,881.0,3390.0,1284.0,-4312.0,1013.0,-2908.0,8364.0,-5689.0,-1344.0,-7194.0,-1780.0,-8803.0,-1631.0,651.0,0
51.0,1003.0,-1064.0,1459.0,418.0,2856.0,-865.0,1200.0,-1875.0,220.0,-2975.0,1732.0,1750.0,7177.0,-2956.0,1966.0,2694.0,1457.0,-44.0,-1422.0,-196.0,2909.0,-260.0,1882.0,-3692.0,3546.0,1016.0,4785.0,1307.0,5002.0,1752.0,-1402.0,0
1417.0,1641.0,-2383.0,2678.0,561.0,5489.0,-2082.0,2182.0,-3753.0,312.0,-6136.0,3593.0,3403.0,14386.0,-6200.0,4068.0,5308.0,2754.0,-330.0,-2993.0,-778.0,5447.0,-687.0,3682.0,-8027.0,6946.0,1999.0,9231.0,2458.0,10283.0,2999.0,-285.0,0
845.0,390.0,1506.0,-420.0,326.0,-1526.0,838.0,-476.0,1588.0,395.0,2724.0,-1097.0,-1045.0,-5096.0,2660.0,-1433.0,-2057.0,-845.0,576.0,1647.0,612.0,-1498.0,545.0,-902.0,3468.0,-1871.0,-243.0,-2186.0,-479.0,-2881.0,-245.0,1767.0,0
-609.0,-401.0,3334.0,-2039.0,130.0,-5051.0,2423.0,-1813.0,4140.0,310.0,7019.0,-3560.0,-3275.0,-14798.0,7025.0,-4234.0,-5614.0,-2599.0,992.0,3810.0,1367.0,-4921.0,1146.0,-3299.0,9278.0,-6410.0,-1515.0,-8114.0,-1988.0,-9821.0,-1905.0,981.0,0
-231.0,733.0,-346.0,834.0,331.0,1523.0,-318.0,664.0,-904.0,204.0,-1322.0,811.0,890.0,3453.0,-1313.0,909.0,1277.0,742.0,140.0,-577.0,38.0,1572.0,-33.0,978.0,-1535.0,1812.0,550.0,2546.0,732.0,2451.0,1100.0,-1289.0,0
1268.0,1666.0,-2641.0,2812.0,547.0,5888.0,-2263.0,2330.0,-4087.0,290.0,-6672.0,3838.0,3646.0,15491.0,-6747.0,4353.0,5734.0,2901.0,-396.0,-3310.0,-889.0,5802.0,-793.0,3920.0,-8729.0,7390.0,2093.0,9852.0,2594.0,10976.0,3160.0,-742.0,0
1080.0,631.0,727.0,184.0,377.0,-128.0,212.0,47.0,544.0,398.0,989.0,-176.0,-180.0,-1279.0,904.0,-378.0,-621.0,-183.0,376.0,710.0,305.0,-149.0,265.0,3.0,1165.0,-146.0,206.0,111.0,98.0,-277.0,387.0,1501.0,0
-455.0,-434.0,3449.0,-2139.0,151.0,-5284.0,2474.0,-1922.0,4345.0,328.0,7326.0,-3722.0,-3434.0,-15468.0,7344.0,-4442.0,-5889.0,-2748.0,1020.0,3959.0,1399.0,-5167.0,1148.0,-3429.0,9660.0,-6700.0,-1581.0,-8445.0,-2084.0,-10251.0,-2012.0,1340.0,0
-436.0,483.0,393.0,231.0,297.0,130.0,257.0,123.0,181.0,204.0,423.0,-142.0,25.0,-407.0,461.0,-194.0,-162.0,25.0,312.0,339.0,352.0,226.0,202.0,90.0,780.0,77.0,99.0,284.0,165.0,-212.0,463.0,-946.0,0
1092.0,1675.0,-2721.0,2842.0,556.0,5954.0,-2266.0,2341.0,-4129.0,260.0,-6765.0,3854.0,3707.0,15671.0,-6810.0,4414.0,5828.0,2958.0,-405.0,-3360.0,-875.0,5936.0,-804.0,3978.0,-8791.0,7481.0,2076.0,9909.0,2630.0,11011.0,3162.0,-993.0,0
1277.0,936.0,-51.0,805.0,448.0,1269.0,-355.0,576.0,-486.0,386.0,-763.0,794.0,708.0,2623.0,-833.0,766.0,862.0,553.0,197.0,-186.0,39.0,1283.0,45.0,958.0,-1098.0,1643.0,647.0,2392.0,685.0,2385.0,1045.0,1323.0,0
-201.0,-311.0,3433.0,-2047.0,198.0,-5128.0,2457.0,-1836.0,4322.0,374.0,7242.0,-3567.0,-3333.0,-15146.0,7269.0,-4281.0,-5723.0,-2655.0,1025.0,3947.0,1423.0,-4982.0,1199.0,-3284.0,9522.0,-6487.0,-1495.0,-8193.0,-2008.0,-9926.0,-1910.0,1723.0,0
